patient,time,label,epoch,EEG-Fz,EEG-0,EEG-1,EEG-2,EEG-3,EEG-4,EEG-5,EEG-C3,EEG-6,EEG-Cz,EEG-7,EEG-C4,EEG-8,EEG-9,EEG-10,EEG-11,EEG-12,EEG-13,EEG-14,EEG-Pz,EEG-15,EEG-16
4,-0.1,right,4,-2.3944561298076916,3.2320462740384612,2.0432692307692313,1.3878455528846154,0.5859375000000002,-0.6479116586538456,6.330754206730771,2.240459735576923,2.884615384615385,1.609450120192308,0.08263221153846172,0.7399338942307697,0.5990835336538459,-1.0310246394230762,-0.2817007211538458,-0.26855468750000006,-0.7943960336538456,-1.3296274038461535,-3.7560096153846145,-2.7437650240384612,-2.2442157451923075,-6.2443659855769225
4,-0.096,right,4,-4.265461101398603,-0.34794307255244894,0.36757675917831967,0.6887155812937054,-0.796786221590911,-0.7122760052447563,-0.08126638986014112,0.5159391389860123,1.2089229130244736,2.472820148601397,0.6530334899475514,2.6775226726398587,3.610891062062935,-0.997732736013987,-0.9808306927447562,1.9620028409090897,1.3873333697552428,1.4380394995629355,-2.8926395869755264,-1.7339106206293728,-0.8437363417832189,-3.3302147071678334
4,-0.092,right,4,-2.4033339707167825,2.8813715581293717,2.473844514860141,1.1836552119755253,0.6747159090909101,0.9545386254370639,-1.0023423841783201,1.9874412696678325,1.166753168706295,1.454087904283218,0.02492624562937151,1.4146498033216797,-0.04455993225524373,-2.504746230332166,-0.8276879370629361,0.5038174715909102,0.515085500437064,0.5657916302447564,-2.202387456293705,-0.6530334899475512,-1.2277029611013976,-4.934884451486012
4,-0.088,right,4,-1.662034254807692,-1.9437349759615383,2.2874098557692304,-1.2977013221153844,1.904296875,-1.8686147836538458,-2.26299579326923,-1.714618389423077,2.8357872596153846,1.365309495192308,2.2798978365384617,0.007512019230769691,1.575646033653846,-2.4958683894230766,0.8901742788461541,1.0009765625,1.988807091346154,0.5746694711538463,-1.9493689903846154,0.3324068509615385,0.39250300480769224,-2.240459735576923
4,-0.084,right,4,-3.5330392263986012,2.142291302447552,2.076561134178322,-1.9968312937062933,-0.06436434659090863,-2.6654010052447545,1.3347492351398604,0.8577360139860136,2.966735413024476,1.4962576486013988,0.8971741149475524,-0.984586702360139,-0.1000464379370627,-0.9977327360139855,1.6070599322552448,1.131924715909091,0.9967083697552449,-0.5150855004370627,-1.5254520869755244,-0.31789499562937035,-0.5019394667832167,-2.3048240821678316
4,-0.08,right,4,-2.5231848229895113,-5.392776169143357,-1.112803212412587,-1.6217425152972034,2.0197088068181817,1.0788283981643356,-3.124146361451048,-3.015222082604896,0.5586210664335669,0.11353392701048877,2.785934768356643,1.5877677010489522,3.4976985904720275,-3.1617064576048954,0.5661330856643357,0.5792791193181823,3.031953398164336,3.033831402972028,-0.7109101835664332,0.5943031577797193,2.0704149366258733,-0.8555165537587419
4,-0.076,right,4,-1.2492146525349648,-1.5797434986888108,-2.6220361669580416,0.8241026551573432,0.9011008522727275,4.598892318618881,-5.512285565996502,-1.9365644121503491,-2.3177993881118875,1.241019722465035,0.055998688811188926,4.570722246503498,2.7697156359265738,-2.6689862871503487,-3.0915373688811183,1.1208274147727275,1.6692048186188815,3.087098448426574,-2.122486888111888,-0.08485167176573404,2.1236819820804196,0.22314111669580464
4,-0.072,right,4,-0.8896620957167862,-3.2221440668706323,-3.1902179851398618,0.7442020869755221,2.188387784090907,3.2494605004370607,-5.2015611341783226,-4.213730605332171,-3.7648874562937076,-1.3291152207167847,-0.023901879370632432,2.8794935533216757,5.375361942744752,-4.21373060533217,-2.2437035620629397,-0.4727450284090936,2.5170386254370603,4.325557255244753,-0.2004343312937084,0.7629821350524445,3.801593913898599,3.121756173513984
4,-0.068,right,4,0.40428321678321694,-3.14890187937063,-3.40994454763986,1.5010380244755235,0.40616122159090823,5.0805151879370625,-3.3705064466783208,-4.531113417832168,-5.205317143793707,-0.32813865821678323,-0.7319096918706307,2.9527357408216774,0.9075885052447552,-4.1404884178321675,-4.318898874562937,-0.25301846590909244,1.7113745629370622,3.861690067744755,-0.0783640187937066,1.7639586975524462,4.9978829763986,5.929373361013986
4,-0.064,right,4,0.8037860576923076,0.7662259615384618,-1.3991135817307692,0.6310096153846155,-0.8544921874999999,2.306189903846154,2.64423076923077,-3.057391826923077,-2.8526893028846145,-1.198167067307692,-1.7484224759615385,0.5202073317307697,1.9418569711538456,-1.7390324519230764,-3.333458533653846,-0.48828125,-0.6723257211538459,0.6967397836538466,-0.7042518028846152,0.9427584134615387,2.8583233173076925,3.936298076923076
4,-0.06,right,4,2.175412478146853,-0.8894913680069932,-1.0528777862762235,1.0260735358391606,0.32182173295454564,2.2129725743006987,-1.5017209353146852,-3.9806872814685317,-3.3853597574300704,0.07580310314685294,-1.8416398055069938,-0.25660374781468553,-0.3974541083916085,-1.588109156468531,-4.012613363199302,1.0298295454545452,-0.8143711756993008,-0.2753837958916084,1.4974527425699298,2.8026660839160833,2.227996612762237,6.626283872377622
4,-0.056,right,4,2.785764040646853,1.1857039444930069,0.7781769012237764,0.22040947333916056,0.1020951704545453,0.04012101180069954,-0.11011937281468431,-2.7843982189685312,-0.6753988199300697,-0.5345484593531468,-1.1336319930069931,-3.2595334353146845,-3.2050712958916088,-1.4172107189685312,-1.0096836756993006,-0.019975142045454385,-1.4735508631993006,-1.7646416083916083,2.15663243006993,1.9481738964160833,1.2758481752622377,6.8948385598776225
4,-0.052,right,4,4.53247923951049,2.395309768356644,4.0873921000874125,1.8694684222027975,2.044122869318182,-1.6799606643356637,0.7576895760489516,-1.2818236451048952,1.7549101289335667,0.23560423951048995,0.3689425808566432,-5.467896361451049,-4.876324847027972,-3.2349486451048945,1.3229690231643358,-1.5447443181818177,-1.4846481643356642,-3.435895159527972,0.9736601289335668,0.2280922202797207,-0.7860303758741256,3.2216318837412596
4,-0.048,right,4,4.439261909965035,0.9349049388111886,3.750034145541958,1.3367979676573425,1.4626242897727275,-0.6989592438811186,-0.8980277534965031,0.13863090034965064,2.101145924388112,0.5818400349650349,0.9104908763111884,-4.340410565996503,-2.137510926573427,-1.6680097246503494,0.985611068618881,-0.2707741477272726,-0.6989592438811186,-3.3337999890734267,0.8316146743881119,-0.7440313592657343,-2.68588833041958,0.0034145541958042697
4,-0.044,right,4,-0.26821323208041864,7.409070421765736,3.290605878496504,2.244557200611889,-2.1706321022727266,-0.6701062609265726,2.7441064794580425,5.489749508304196,3.204217657342658,2.7591305179195813,-1.453234265734265,-3.5303075830419566,-4.501236068618881,4.269046383304197,1.6004015515734276,1.0764382102272734,-3.013856260926572,-6.478775131118881,-1.0438292176573418,-2.717131501311188,-4.951957222465034,-3.2880449628496495
4,-0.04,right,4,-2.8228119536713283,5.098612325174825,1.3219446569055946,1.6919116040209794,-2.723277698863636,-2.443454982517482,2.093804632867134,6.597260161713285,2.700400185751749,2.6947661713286712,-1.8105673623251743,-3.7411563046328657,-5.395678540209789,5.9624945367132876,2.073146579982518,1.9886363636363638,-1.906345607517482,-5.27360822770979,0.5031345607517484,0.09936352709790218,-3.942102819055944,-2.766471809440559
4,-0.036,right,4,-7.470361669580418,-0.5743280157342656,-0.6888863090034962,0.12053376311188821,-5.124733664772727,-5.479676573426572,-1.3330419580419584,6.441897945804196,3.1798035948426566,3.56479458041958,-1.184679578234266,-3.554721645541958,-8.627212631118882,8.395022945804195,4.456846864073426,4.274680397727272,0.5261828015734266,-3.1340485686188813,3.6192567198426575,2.580720061188811,-0.4353556599650351,0.44730659965035047
4,-0.032,right,4,-6.5359689138986,1.580767864947552,-0.9751966783216781,-0.16577660620629373,-4.336825284090909,-4.105830692744755,0.6755695476398602,6.595040701486013,2.161071350524475,1.2765310861013983,-1.6174743225524475,-2.03439138986014,-5.104929250437063,6.839181326486015,3.975223994755244,2.1817294034090904,0.3375286822552449,-1.4184058129370631,2.9423213505244745,1.073706566870629,-1.0634629042832175,-2.280410019667832
4,-0.028,right,4,2.34409145541958,-0.5254998907342658,-0.20060505900349662,-2.2720443618881125,-0.24192116477272813,-0.2062390734265732,3.1103174169580425,2.193851070804195,0.6407410948426574,-3.2711429195804196,-0.2569452032342654,0.49801272945804204,7.339584243881118,1.607913570804196,0.7459093640734265,-3.8307883522727284,-0.9874890734265735,0.6257170563811191,0.543084844842657,-1.4720143138111883,-3.0720744099650346,-3.3124590253496504
4,-0.024,right,4,0.7838109156468537,5.8243758194930075,2.7313019012237767,-1.7327155266608387,-1.5092329545454535,-4.5985508631993,4.235583752185316,4.442164281031469,2.9378824300699304,-1.3157984593531462,-0.10824136800699248,-1.1599240603146843,-0.42186817089160794,3.660914281031469,2.3106288243006996,-1.3871626420454537,-2.0594883631993,-1.6669853583916077,-1.1636800699300696,-1.6651073535839158,-3.3139955747377616,-4.823911440122377
4,-0.02,right,4,1.405259779283215,-5.12644094187063,-2.0671711101398618,-1.3065791630244774,0.18643465909090703,-1.0962426245629386,0.7066419908216772,-0.9422462303321693,0.4831594187062919,-1.9638808457167845,1.8803949956293695,1.6099623033216781,2.006221317744754,2.4268943946678307,2.101999562937061,-1.2539950284090924,0.07563237543706115,1.4446978802447537,1.2155812937062915,-0.4088928649475535,-0.39762483610139926,-0.979806326486015
4,-0.016,right,4,3.4737967111013974,1.4831116149475518,-2.4400404283216792,-0.5075734812062946,-1.4071377840909098,2.3883099322552437,1.70096017263986,0.8821500764860126,-3.2588505244755255,-2.3367501638986026,-1.031536822552449,3.8738117351398595,1.3403832495629358,1.9563688264860137,-2.225947880244756,-2.21280184659091,-1.1761431927447565,2.585500437062936,-0.5244755244755254,-1.2700434331293717,-0.5263535292832178,-0.7667381446678331
4,-0.012,right,4,4.146293159965037,-0.041657561188810484,-0.44918460445804104,-1.5440614073426562,1.1696555397727284,0.22877513111888248,1.2015816215034982,-1.5703534746503487,-3.1722915756118875,-3.861519340034964,-0.4566966236888101,1.0795113090034976,-1.1121203015734256,-0.8867597246503485,-1.0651701813811179,-3.053977272727271,0.3752595061188824,2.7208875109265738,2.1011459243881125,0.1837030157342669,1.7574710445804205,2.249508304195805
4,-0.008,right,4,2.102170290646854,-3.648280430506992,-3.0304168487762233,-0.4631842766608385,0.053267045454545595,3.4580897618006996,-2.746838122814684,-2.784398218968531,-3.360945694930069,-1.3646265843531462,-0.05941324300699277,2.0627321896853155,-0.17772754589160814,-0.8801013439685307,-0.7655430506993002,-0.5570845170454539,0.7237147618006998,3.3134833916083917,1.9613199300699304,0.48333014641608435,2.643035675262238,3.037416684877623
4,-0.004,right,4,3.8111546656468533,-5.1619523055069925,-1.9561980987762233,-1.342090526660838,1.9087357954545463,1.0166835118007,0.37816187718531613,-3.467991968968531,-1.7984456949300693,-1.657595334353146,1.3566023819930073,1.476794689685316,2.361334954108392,-0.3429919689685305,0.4551600743007,-0.06880326704545388,-0.3505039881993,0.5791083916083922,0.2035074300699306,-0.4444042285839153,1.2270200502622381,1.8167135598776227
4,0.0,right,4,2.810178103146854,-3.3308976180069925,-0.6134246612762234,-1.220020214160839,3.3003373579545454,0.2598475743006997,-0.7692990603146841,-3.1017810314685312,-0.9927816324300694,-1.7796656468531464,2.162266444493007,0.37816187718531546,2.7763740166083917,-1.1486560314685308,1.0655116368006994,-1.1674360795454541,-0.4237461756993004,-0.22655567089160805,0.3255777425699304,0.45891608391608407,0.6166684877622379,0.6204244973776228
4,0.004,right,4,0.7505190122377621,1.005927666083916,-1.5988650021853146,1.0171956949300698,-0.6636186079545457,-0.0908271416083915,-1.0711456512237754,0.06316925262237814,-1.8805657233391606,0.6040346372377622,-0.434502021416084,-0.36313783872377586,-2.7500819493007,1.1862161276223782,0.4218681708916083,0.6303267045454545,-1.2627021416083917,-2.5303553868006996,2.465137401660839,0.25472574300699263,0.5101343968531467,3.7365466564685312
4,0.008,right,4,1.1855332167832155,-1.6840581293706305,-1.3103351726398615,-0.25677447552447685,2.310458096590908,4.445749562937062,-2.0033189466783226,-1.3084571678321697,-2.0803171437937076,-0.5234511582167846,0.8305903081293692,0.9019544908216773,-2.4127239947552463,-0.5272071678321685,0.27094487543706197,-0.3018465909090921,-0.9741723120629384,-2.0953411822552455,2.753667231206292,0.8850524475524463,-1.0079763986013999,2.9020296110139854
4,0.012,right,4,-0.2171656468531458,0.13589925699300817,-0.07631528627622272,0.9772454108391618,0.9077592329545463,-2.865152425699299,-0.036877185314683064,-0.31857790646853024,0.6673746175699311,2.126584353146854,1.8204695694930078,-1.0866818728146839,-6.110344733391607,1.341578343531469,2.4815272618006996,1.078657670454546,0.5039881993007002,-2.2773369208916074,2.3763589925699304,-0.9082714160839153,-1.7759096372377616,1.2551901223776236
4,0.016,right,4,1.5717192963286706,-0.02834079982517451,2.2985071569055937,-0.2612133959790219,2.550159801136363,0.5838887674825181,-0.15228911713286772,-1.6546929632867127,2.3586033107517492,1.4252349213286721,3.8046670126748245,0.9463436953671337,-0.7570066652097909,0.9331976617132878,1.9754903299825166,-0.5504261363636366,-1.076267482517482,-2.6857176027097904,-0.6199123142482527,-4.5393083479020975,-3.9909309440559446,-2.13170618444056
4,0.02,right,4,2.4639423076923075,1.3521634615384617,0.602839543269231,4.927884615384615,2.7587890625,6.017127403846154,-5.021784855769229,-1.4460637019230769,-0.6065955528846152,3.977614182692308,3.6226712740384612,5.451847956730769,1.4047475961538463,-0.12770432692307648,-1.868614783653846,-0.048828125000000125,-0.3305288461538458,-0.5239633413461536,-5.245267427884615,-6.186147836538462,-4.7588641826923075,-6.4152644230769225
4,0.024,right,4,7.730721427010489,3.2498019558566433,4.8442280375874125,3.358726234702797,4.119318181818182,0.9323440231643353,0.7332755135489517,-2.7222533326048954,1.5840116914335662,1.8225183020104894,4.348434768356642,0.17175207604895174,-1.1409732845279719,-2.526940832604895,-0.5080856643356642,-3.5222833806818183,-0.9231247268356645,-0.3841373470279721,-5.984347683566433,-6.143978092220281,-3.691303813374126,-5.347704053758743
4,0.028,right,4,8.689528245192308,10.702749399038462,6.144831730769231,6.905423677884616,5.419921874999999,4.918494591346153,-1.62823016826923,-0.20094651442307687,-0.045072115384615176,1.5117938701923082,1.4009915865384615,1.0817307692307698,-2.0864633413461537,-5.376727764423076,-3.9438100961538463,-3.8818359374999996,-1.429161658653846,0.03756009615384644,-8.785306490384613,-7.38243689903846,-4.4903094951923075,-7.5627253605769225
4,0.032,right,4,7.120369864510489,-1.4621121066433576,2.6225483500874116,4.750327797202797,5.071466619318181,6.571992460664335,-4.906372923951049,-6.066979895104896,-1.9071992460664342,0.040291739510489206,2.9080050808566424,2.979369263548951,7.233050152972027,-6.262292395104895,-3.7063278518356646,-3.449041193181818,-0.41042941433566466,3.009417340472027,-6.545871121066434,-4.45940777972028,-0.6395460008741265,-2.4912587412587412
4,0.036,right,4,6.106076540646853,-4.136561680506992,2.3895050262237767,2.5641594733391613,5.473188920454545,2.6768397618006996,-5.237072497814685,-7.325413843968531,0.057023055069930544,0.7349827906468537,2.284336756993007,-1.2575803103146845,3.5332099541083917,-4.151585718968531,-0.6190586756993,-0.5570845170454545,-0.6434727381993002,0.2373115166083919,-2.9214925699300696,-0.3467479785839161,0.8852231752622379,0.2542135598776227
4,0.04,right,4,0.548548131555944,0.8527849104020983,-0.433648382867133,2.8660060642482517,1.7223011363636367,2.490405102709791,-2.2985071569055937,-2.043098503059441,-1.9360522290209783,2.5016731315559437,-0.2946760270979021,-0.760421219405594,2.0772440450174816,-1.5059891280594406,-2.270337084790209,1.6490589488636367,-0.8787355222902095,-0.9256856424825177,-2.1801928540209787,0.7851767373251748,0.6499603911713282,-0.6158148492132868
4,0.044,right,4,3.919908216783217,-4.125464379370629,0.25216482736014006,0.18267864947552473,3.579989346590909,0.24653081293706308,0.3404310533216786,-4.6775977928321675,-0.029535893793706046,0.3554550917832169,1.3676996831293704,-4.127342384178321,-0.21545836975524482,-2.285019667832167,1.003366750437063,-0.30184659090909083,-0.4858910620629369,-1.2164349322552446,-0.42016089379370625,2.6428649475524475,1.6775704763986012,2.3160921110139863
4,0.048,right,4,0.9458315122377625,-3.8280567089160837,-1.2082400021853146,0.2847738199300702,1.4359907670454548,-3.2646552666083903,-0.6316925262237756,-2.915346372377622,-0.7086907233391605,0.018097137237762514,0.6397167285839163,-4.074075338723775,-3.043050699300699,-0.8157369973776216,1.4960869208916086,1.3627485795454548,0.7392509833916087,-0.4307460118006989,3.6370124016608387,3.8680069930069925,2.6585718968531467,3.834202906468531
4,0.052,right,4,-3.8393247377622357,-4.658134833916082,-4.528552502185313,-0.6429605550699286,-0.41947798295454425,-1.40918651660839,-3.268411276223774,-1.9387838723776207,-1.636425098339159,2.3130190122377634,0.6885448535839173,-0.949075338723774,-2.945394449300698,1.57684112762238,1.7890556708916097,3.560014204545456,2.25292285839161,0.5946446131993022,3.8811530266608396,4.307460118006994,1.7796656468531478,3.4924060314685326
4,0.056,right,4,-2.6963027207167856,-4.88230031687063,-2.7995929851398618,-1.1600947880244765,0.9188565340909077,-1.1450707495629382,0.07187636582167768,-2.4070899803321697,0.4831594187062919,1.7958847792832149,3.6870356206293686,-0.0013658216783223008,-0.9234661822552465,2.0850975196678294,3.0785620629370603,2.7010830965909074,1.3451636254370603,-0.26428649475524624,1.410893793706292,1.7395446350524453,-0.6417654611014012,-2.395821951486015
4,0.06,right,4,-3.519722465034964,-7.07290756118881,-5.820278354458041,1.239141717657343,1.7555930397727282,4.086197006118882,-7.587480878496502,-3.523478474650349,-3.2699478256118875,3.413871284965036,4.279631501311189,7.329511309003496,3.819520323426574,1.21284965034965,0.4485016936188815,3.147194602272727,3.5490876311188813,3.4044812609265738,-0.6332290756118886,0.5743280157342662,-1.5140133304195804,-5.318851070804196
4,0.064,right,4,-1.340212521853145,-1.6707413680069894,-2.420065286276221,1.4655266608391648,2.128462357954549,2.408285074300701,-1.6970334353146832,-1.539281031468528,-1.6763753824300667,2.273068728146854,4.701328944493008,3.9914431271853172,-0.5927666083916064,0.6579845935314714,0.2354335118007025,1.371626420454549,2.7989100743007023,3.1425849541083952,-2.652937882430067,-0.8594432910839138,-2.7036440122377603,-8.022153627622375
4,0.068,right,4,-0.8918815559440558,-5.9099104020979,-1.288140570367133,0.449013876748251,4.822887073863637,-0.7078370847902088,-4.129561844405593,-3.825325065559441,-0.7397631665209787,0.7194465690559452,6.7609880354020975,3.4143834680944063,-0.09560751748251765,-2.1163406905594386,2.6857176027097895,0.06214488636363695,4.272631665209792,4.1768534200174825,-1.0815600415209776,0.6631064248251738,-0.8881255463286709,-6.353119536713287
4,0.072,right,4,-1.932808402534967,-6.560212248688811,-1.8896142919580434,1.2147276551573407,1.7800071022727255,-1.309310806381121,-10.346269940996503,-4.524455037150349,-0.26701813811188724,2.7546915974650337,5.7200611888111865,4.521894121503495,-0.990049989073428,-0.7158612871503509,2.2795563811188795,2.1950461647727253,5.08717356861888,4.7960828234265716,-0.9506118881118892,2.014757703234263,0.9518069820804174,-3.829593258304197
4,0.076,right,4,-3.0380995957167785,-8.788550316870626,-1.7742023601398569,-0.8182979130244734,1.7489346590909112,-3.2935082495629335,-10.474998634178318,-6.410996230332166,0.8249562937062966,3.1630722792832184,6.665551245629373,4.00254042832168,0.4925494427447568,0.03431626966783664,3.1762183129370647,3.384676846590912,5.349069875437063,5.302119755244756,-1.1281687062937045,1.8860290100524495,2.287922038898605,-2.591134451486012
4,0.08,right,4,-4.8780321241258715,-7.405826595279716,-3.5164786385489477,2.322238308566437,-0.04216974431818087,-2.496722027972026,-16.025868662587406,-5.174756883741256,-1.698569984702796,4.936421000874127,4.48382184222028,3.8715922749125884,-3.300508085664335,0.4893056162587446,1.9710514095279725,5.988103693181821,5.999371722027973,5.366484101835666,1.084633140297203,4.0500027316433584,4.3054113854895135,-0.3295044798951032
4,0.084,right,4,-2.2857025786713296,-4.715840799825174,-1.2171178430944036,2.4243334790209787,0.6458629261363643,-1.8575174825174825,-18.902289117132867,-6.635161713286712,-1.2546779392482512,4.110781796328673,4.830057637674825,2.118218695367135,-2.6613035402097913,-1.801177338286711,2.170802829982517,3.9417613636363655,5.027248142482518,4.980298022290211,0.4543064357517477,4.835691652097903,4.602819055944058,1.188606315559442
4,0.088,right,4,-4.014662095716784,-11.37644094187063,-4.703889860139861,1.6231083369755253,2.4813565340909083,3.835398000437064,-21.70546738417832,-10.170761855332168,-3.7648874562937062,3.8954941542832158,4.175316870629369,4.4908216783216774,1.1273150677447548,-3.7742774803321675,1.0277808129370607,5.288973721590909,5.886179250437062,5.839229130244754,3.0222219187062924,6.231732135052445,6.291828288898601,4.293631173513985
4,0.092,right,4,-1.9550030048076898,-7.314828725961536,-3.034855769230766,2.9015174278846163,0.5371093750000019,0.6216195913461564,-13.346980168269226,-7.427509014423075,-3.023587740384612,5.320387620192311,3.0611478365384626,0.8375901442307729,-3.9907602163461515,-1.2751652644230755,0.9878305288461579,5.1513671875000036,3.6001352163461555,1.746544471153847,2.298677884615387,5.215219350961541,5.080003004807695,4.009540264423078
4,0.096,right,4,-1.5776947661713263,-8.158223612325171,-2.999344405594404,2.35109129152098,0.7679332386363644,0.7059590799825198,-10.967718804632865,-6.95254452578671,-2.206826376748251,5.4535552338286735,3.6825967001748263,1.0684140078671356,-1.7091551027097875,0.12753359921328677,1.2186543924825204,5.431019176136364,2.4637715799825197,-0.5128660402097872,1.4552829982517492,4.664793214597902,3.357701868444056,2.336067253059441
4,0.1,right,4,-0.11285101617133517,-6.20509861232518,-0.36262565559440973,3.083513166520974,1.7444957386363584,-2.5655252950174874,-8.575140679632872,-6.903716400786719,-0.20487325174825832,4.476992733828666,3.8290810751748205,-3.179632867132873,-7.715014477709795,-0.6537164007867187,2.781154392482511,3.917347301136358,1.6825215799825106,-3.1007566652097953,3.5060642482517435,5.641355714597896,3.99246749344405,4.923957878059434
4,0.104,right,4,1.8424934440559428,-6.0563947770979025,0.46967192963286497,1.8162013767482494,2.967418323863634,-2.70979020979021,-4.959639969405595,-7.340950065559442,0.23679933347902044,2.428430944055943,5.247316160402097,-2.444991531905596,-3.3670918924825193,-2.555793815559441,2.783373852709789,2.112926136363635,1.1476316652097884,-1.5360372049825182,1.408674333479019,3.348653299825173,2.822811953671327,2.3382867132867124
4,0.108,right,4,3.347287478146852,-4.5027726180069925,2.4627472137237763,2.442089160839159,3.495649857954544,-2.4745274256993,-6.384533435314685,-6.129124781468533,0.17909336756993066,2.859006228146854,5.922032069493006,-1.7214474978146852,-6.842766608391609,-5.640843531468531,1.3096522618006992,1.469282670454545,3.0918788243007005,-0.5195244208916078,1.0091714925699296,2.6073535839160837,2.8627622377622384,1.1575338723776207
4,0.112,right,4,1.0368293815559442,-0.660886964597902,2.056585992132867,2.475381064248252,0.6480823863636364,-1.9529542722902096,0.2893834680944068,-2.58020787805944,0.16355714597902088,3.380579381555944,3.904542722902097,0.5091100305944058,-6.614162204982518,-1.6524735030594404,-0.4636964597902099,2.4303089488636362,1.3673582277097898,-0.7303731424825172,-1.4965991040209794,-0.09372951267482496,0.25933539117132803,-2.275971099213287
4,0.116,right,4,5.26490111451049,1.4187472683566433,3.6967671000874125,6.5081402972027975,5.315607244318181,5.351289335664336,-8.226685423951048,-4.895104895104895,-0.5400117460664332,4.971932364510489,6.570114455856643,5.762572388548951,0.34828452797202814,-4.699792395104895,-2.534452851835664,1.1408025568181819,1.1032424606643358,0.6656673404720279,-8.450167996066433,-4.06878277972028,-3.1786085008741254,-11.52446186625874
4,0.12,right,4,4.341605659965035,1.2767018138111892,3.554721645541958,2.5086729676573425,3.1716086647727275,0.5705720061188815,2.764081621503497,-3.084025349650349,-0.14494782561188774,2.2419962849650346,5.060881501311188,3.5209175590034967,3.282410948426573,-3.8652753496503487,-2.8229826813811183,-1.1008522727272727,0.8635407561188811,2.3302625109265738,-7.371510325611887,-4.747937609265734,-2.53940395541958,-9.811038570804195
4,0.124,right,4,5.602259069055944,3.562745847902098,5.645453179632867,1.7185451267482517,3.1627308238636362,-0.7566652097902101,4.610672530594406,-0.21204381555944077,2.0922680834790213,0.914759069055944,3.9777849104020975,0.5823522180944063,2.834079982517482,-2.0675125655594404,-0.7810792722902097,-2.574573863636364,-0.9031495847902101,0.9541971700174827,-7.624528791520979,-5.733377950174825,-3.6225005463286712,-11.382416411713287
4,0.128,right,4,6.9605687281468525,-0.4012101180069937,4.025247213723775,1.8073235358391593,5.302290482954543,2.5059413243006987,0.011950939685314944,-2.7111560314685326,0.6185464925699297,0.2222874781468529,4.066563319493005,0.7687868771853134,5.36426464160839,-4.224827906468531,0.040121011800698575,-3.169389204545454,-0.5214024256993017,1.7265693291083906,-6.36387538243007,-3.984443291083917,-2.361847137237764,-9.68230987762238
4,0.132,right,4,7.852791739510489,4.690231643356644,5.552235850087413,3.041343422202798,3.508966619318182,-0.2639450393356638,1.6854239510489528,-0.30526114510489427,1.9990507539335676,0.7727136145104907,1.7361300808566433,-2.489380736451048,1.7154720279720292,-1.6724486451048937,-1.1672653518356633,-2.325994318181818,-2.2170700393356637,-0.5550357845279715,-5.227511746066432,-4.557064029720279,-2.7879835008741254,-8.985399366258742
4,0.136,right,4,3.4271880463286712,1.6318154501748257,1.2242884069055942,3.449724104020979,2.9407848011363638,2.439357517482518,-2.105414117132866,-0.2386773382867127,0.6007908107517487,3.4271880463286712,1.949198262674825,0.018609320367134204,1.0984620847902098,1.2749945367132876,-0.8565409200174822,0.1331676136363644,-1.5157206075174827,-0.39079572770978965,-4.282021689248251,-3.9533708479020975,-1.9889778190559433,-8.284049934440558
4,0.14,right,4,4.255046711101399,1.9225647399475525,3.2728501966783217,2.812739018793706,4.403409090909091,-0.590205692744755,0.5290851726398603,-1.070974923513986,3.0888057255244754,2.9855154611013983,4.534869427447552,-2.376188264860139,-0.808054250437063,-1.1198030485139856,0.4107708697552448,-0.7479580965909087,-0.7855181927447554,-1.125437062937063,-4.772522399475524,-2.93019968312937,-2.2841660292832167,-9.604628769667832
4,0.144,right,4,3.5137469951923075,-1.9437349759615383,-0.300480769230769,4.366361177884616,3.8574218750000004,5.113807091346154,-11.49151141826923,-4.253680889423077,-0.631009615384615,5.662184495192307,5.014272836538461,2.9860276442307696,0.5990835336538464,-2.447040264423076,-1.9906850961538463,1.9775390625,1.1587289663461537,1.3070913461538463,-4.293118990384616,-2.4507962740384612,0.4901592548076923,-6.2443659855769225
4,0.148,right,4,3.5315026770104905,-2.658401169143355,-0.33155321241258595,4.384116859702798,6.9513494318181825,6.059297148164336,-10.838990111451047,-4.968347082604894,-1.443332058566432,4.556893302010491,6.692184768356645,4.908080201048952,3.7418392154720284,-5.749597082604893,-2.217070039335663,0.8234197443181829,1.6159377731643367,2.0572689029720284,-5.642550808566432,-2.6283530922202782,-0.7127881883741248,-8.130907178758738
4,0.152,right,4,3.278484211101399,-3.2532165100524466,-1.1216810533216768,3.593989018793707,5.721768465909091,5.562138057255246,-11.384977327360136,-4.342459298513985,-1.647522399475523,6.0128592111014,6.097369427447553,5.289827360139861,-1.8822730004370616,-3.9030061735139845,-2.811885380244754,3.109463778409092,2.9254193072552463,2.0483910620629375,-4.919006774475523,-1.4165278081293693,0.15724022071678442,-7.11439439466783
4,0.156,right,4,2.761349978146852,1.5519148819930064,0.46079408872377486,4.05341728583916,5.497602982954544,5.289144449300699,-11.218517810314685,-3.345921656468532,-0.30918788243007145,7.0093968531468525,6.947422694493007,6.628161877185313,1.11621776660839,-5.054906031468532,-3.133707113199301,2.8364701704545436,1.5293788243006978,0.6523505791083902,-7.97520350743007,-3.3496776660839167,-1.531769012237764,-10.414731752622378
4,0.16,right,4,-0.9540264423076933,-8.120492788461538,-4.279972956730769,0.3868689903846153,6.030273437499998,6.212439903846154,-12.98076923076923,-7.1589543269230775,-2.217923677884616,4.954176682692306,8.505483774038462,7.7955979567307665,4.383263221153844,-5.742938701923077,-2.0639272836538467,2.7343749999999982,3.7222055288461524,4.212364783653845,-3.1944861778846163,0.9427584134615378,2.0282451923076907,-5.194561298076924
4,0.164,right,4,0.36433293269230904,-3.4329927884615383,-2.4245042067307687,-0.2967247596153839,4.3701171875,6.114783653846153,-8.63506610576923,-6.084735576923077,-1.9249549278846143,3.001051682692309,7.480093149038461,5.940129206730769,2.6742788461538463,-5.791766826923076,-2.210411658653846,0.878906250000001,2.599158653846154,3.8217397836538454,-4.219876802884615,1.5286959134615394,1.5399639423076918,-5.2922175480769225
4,0.168,right,4,-0.008536385489508452,-2.536330856643355,-3.041514149912585,-0.27896907779720037,2.874200994318184,3.251679960664337,-6.6153572989510465,-3.6255736451048928,-2.590792996066432,2.28638548951049,4.714645705856644,4.444213013548952,-1.75132484702797,-2.9908080201048923,-2.339140351835663,2.019708806818183,2.665742460664337,2.9605892154720292,-1.2236054960664327,2.3277015952797213,2.4854539991258764,-3.02836811625874
4,0.172,right,4,0.7327633304195806,0.4998907342657338,-2.2513863090034976,0.3646743881118859,2.7365944602272716,5.457823426573426,-5.776401333041959,-1.7123989291958042,-2.386602655157343,2.6370602054195795,3.893445421765734,4.648403354458041,0.30833424388111763,-2.4936489291958055,-3.6974500109265747,1.4914772727272712,1.600401551573427,2.139388931381119,-3.8026182801573443,0.1881419361888111,0.5412068400349649,-5.119099650349651
4,0.176,right,4,1.4540879042832182,-8.886206566870628,-2.799592985139859,-1.306579163024474,4.092684659090911,1.4916480004370645,-12.037498634178318,-7.094589980332167,-0.5422312062937052,2.5771347792832184,5.835473120629371,3.0259779283216797,2.006221317744756,-1.869980605332167,-0.2905785620629363,3.5799893465909105,2.6146948754370647,2.2747760052447568,-0.24926245629370472,4.229779010052448,3.3621407888986017,-1.468087576486012
4,0.18,right,4,0.13128960882867352,-7.8652548623251715,-2.9016881555944027,-1.164533708479019,2.769886363636366,1.6825215799825208,-10.284125054632863,-6.220122650786712,-0.8884670017482491,2.670352108828672,4.854471700174826,2.0449765078671365,0.43928239729021296,-1.923247650786711,0.5350606424825195,3.526722301136367,2.2196309549825193,1.0984620847902131,1.0158298732517501,5.104246339597904,3.162389368444057,-0.007682746940556643
4,0.184,right,4,2.372944438374126,-7.576725032779719,-1.4901114510489506,-1.5107695039335662,3.8396661931818183,1.2386295345279725,-10.483876475087412,-8.568311571241257,-0.3557965472027965,1.3963819383741272,6.119564029720279,1.601084462412588,2.4856247268356646,-4.027295946241257,0.921246722027973,1.4715021306818197,2.0687076595279725,1.728788789335665,0.32779720279720337,4.855666794143357,3.792716072989511,-0.20743416739510473
4,0.188,right,4,-0.6011322661713275,-4.398457987325174,-2.462235030594404,1.22804441652098,2.6722301136363646,2.6590840799825184,-11.358343804632865,-7.4408257757867124,-3.0369045017482503,1.986758358828672,4.073221700174826,1.8008358828671345,0.34162614729021057,-4.3646539007867124,-0.3926737325174816,2.5013316761363646,2.170802829982519,1.2449464597902107,1.5529392482517494,6.276121339597903,4.138951868444057,1.4083328780594415
4,0.192,right,4,-0.028511527534961566,-7.487946623688808,-2.622036166958039,0.6776182801573457,2.7565696022727297,5.3313141936188835,-13.3247855659965,-9.260783162150348,-2.757252513111885,3.2918009724650372,4.450529938811191,4.619550371503499,6.724793760926576,-4.719767537150347,-1.089584243881117,2.7321555397727306,1.8645173186188837,1.7199109484265767,-0.2670181381118849,4.5049920782342685,3.4420413570804227,-0.5581088833041927
4,0.196,right,4,-0.5767182036713332,-4.569356424825179,-2.340164718094409,2.2778491040209743,1.7200816761363595,2.976466892482514,-8.25775786713287,-6.781646088286717,-1.742959189248255,4.501406796328667,3.9511513876748205,2.264703070367129,0.9031495847902059,-1.0687554632867171,-0.3194315450174863,3.64879261363636,0.4374043924825139,-1.1232176027097946,0.16133768575174434,3.614988527097897,1.7219596809440514,-1.3992843094405627
4,0.2,right,4,2.610426682692308,0.6197415865384619,0.01690204326923122,3.658353365384616,3.9306640625,4.649939903846154,-6.144831730769229,-5.010516826923077,-1.2413611778846148,4.8076923076923075,3.9156400240384617,2.47333233173077,-0.10892427884615363,-2.910907451923076,-2.3080679086538454,1.9531250000000004,0.30423677884615435,-0.8169320913461532,-3.878079927884615,0.21033653846153882,-0.8526141826923073,-5.878155048076922
4,0.204,right,4,5.966250546328672,-0.8584189248251746,0.6871790319055949,2.326677229020979,4.845081676136364,3.562404392482519,-4.839789117132866,-5.1214898382867124,-0.2781154392482511,3.573672421328671,3.9511513876748254,1.5322811953671336,2.2215089597902096,-3.851958588286712,-2.467869045017482,0.08433948863636385,0.2420918924825176,-0.04899885270979004,-3.696084189248251,-1.9025895979020973,-0.8171028190559435,-5.110221809440559
4,0.208,right,4,3.8799579326923084,-0.5033052884615381,1.3352614182692313,1.168118990384616,4.8583984375,3.429236778846155,-3.8499098557692295,-3.692157451923076,0.4187950721153854,1.4873798076923082,4.452749399038462,1.0573167067307703,3.3578725961538463,-5.108173076923076,-1.3315054086538456,-1.3671874999999993,0.35306490384615447,1.2338491586538467,-3.292142427884615,-2.670522836538461,-0.6573016826923072,-4.559795673076922
4,0.212,right,4,0.9236369099650369,-0.4322825611888098,-0.25387210445804054,1.3856260926573438,2.488014914772729,2.816665756118882,4.424237871503499,-0.7402753496503475,-0.047291575611886,2.4373087849650363,3.88900650131119,1.0795113090034985,2.257020323426575,-2.253947224650348,-2.383529556381117,-1.393821022727271,0.08229075611888337,0.7189343859265752,-4.832447825611887,-3.7225469842657324,-1.3675289554195789,-5.074710445804194
4,0.216,right,4,3.942102819055944,-1.4665510270979016,2.813421929632867,1.6208888767482523,5.652965198863637,3.8331785402097904,-4.813155594405593,-3.2393875655594404,2.2387524584790213,3.209680944055944,6.663331785402098,2.7796178430944063,7.228611232517482,-3.1905594405594395,-1.2693605222902093,-1.6956676136363635,0.17106916520979057,0.9541971700174827,-7.673356916520978,-5.391581075174825,-3.3783599213286712,-8.989838286713285
4,0.22,right,4,1.5029160292832153,4.00441843312937,1.6437663898601385,4.796936461975523,3.116122159090908,3.737741750437061,-0.02577988417832173,1.0108787696678316,1.2155812937062926,5.555650404283216,4.517113745629369,4.3931654283216774,5.033565067744753,-1.8699806053321688,-4.2944848120629375,-1.3516512784090922,0.22211675043706194,1.493526005244754,-10.210199956293707,-7.733111614947553,-4.255046711101399,-12.503243826486015
4,0.224,right,4,1.3941624781468536,-1.2801163680069918,1.5838409637237765,3.1745110358391613,5.106977982954547,2.5547694493007,-2.8689084353146845,-2.174046656468531,1.9369058675699302,4.860959353146855,6.654453944493008,2.868396252185316,3.3623115166083912,-2.5158435314685295,-2.8407383631992995,-1.7533735795454541,0.5039881993007005,2.263678704108392,-8.072859757430068,-4.863349541083915,-2.557159637237761,-7.338559877622376
4,0.228,right,4,3.138658216783219,-0.023901879370626926,1.7658367023601411,6.432678649475528,6.607333096590911,5.178171437937065,-8.00917832167832,-2.187363417832167,0.11694848120629497,5.58006446678322,5.762230933129373,5.345313865821679,3.007197880244756,-4.140488417832166,-4.660695749562936,-1.9620028409090888,0.7836401879370645,2.4456744427447568,-7.646723393793703,-5.950885052447551,-2.619304523601397,-8.963204763986012
4,0.232,right,4,6.490043159965034,2.546233063811189,5.556674770541957,5.0965635926573425,8.445046164772727,5.892837631118881,-1.9722465034965047,-2.937540974650351,2.8335677993881103,3.413871284965034,6.721037751311188,4.595136309003496,1.671082823426572,-6.64847847465035,-4.434310806381119,-4.225852272727273,-0.30833424388111935,1.3048718859265716,-10.642994700611888,-7.726453234265734,-4.248388330419582,-11.422366695804197
4,0.236,right,4,4.168487762237764,-0.45891608391608346,0.8913693728146872,3.1168050699300696,6.562943892045456,9.235344733391608,-6.149270651223773,-4.770815122377621,-0.6598625983391595,3.631378387237764,6.157294853583918,8.914205911276225,8.285074300699302,-4.42901824737762,-6.023444329108391,-2.445845170454543,-0.18848339160839048,2.6454258631993013,-9.54658134833916,-6.678868006993007,-2.566037478146851,-9.691187718531467
4,0.24,right,4,2.2442157451923084,-4.726938100961537,0.09014423076923204,0.21597055288461722,7.080078125000001,6.773963341346155,-3.4836989182692295,-6.157977764423076,-0.4356971153846141,-0.05070612980769052,6.967397836538463,7.527043269230769,12.269005408653845,-4.888446514423076,-3.2602163461538454,-3.8818359374999996,-0.2084585336538453,3.9926382211538467,-7.125150240384614,-5.087515024038461,-1.0723407451923068,-6.7814753605769225
4,0.244,right,4,0.0780225633741237,0.9681968422202769,-1.8807364510489524,0.2958711210664322,2.3259943181818157,8.318707659527968,-3.745595225087414,-2.80659282124126,-2.943687172202799,0.5663038133741238,3.434017154720278,8.144053212412585,6.098905976835662,-1.8788584462412596,-5.524065777972029,-2.8742009943181834,-0.6168392154720299,3.0959762893356624,-4.750327797202799,-2.7615207058566447,0.08177857298950854,-3.625402917395106
4,0.248,right,4,-2.9826130900349646,-3.850251311188811,-4.257778354458042,-1.544061407342657,1.5114524147727275,7.650650131118882,-6.171465253496502,-4.402384724650349,-5.223072825611888,-1.2736287150349646,2.1800221263111887,8.110761309003498,8.702332823426573,-2.156290974650349,-4.873763931381118,-1.9309303977272723,0.7170563811188815,4.674012510926573,0.19684904938811232,0.9161248907342661,2.8805179195804196,1.1264614291958046
4,0.252,right,4,-1.7929824082167827,-4.223120629370628,-4.337678922639859,-2.3563838505244754,0.55264559659091,5.861765187937063,-2.6869126966783203,-4.140488417832167,-4.521723393793705,-0.1328261582167827,1.6606684331293708,6.273048240821679,7.304072880244755,-1.015488417832167,-5.295461374562937,-0.9854403409090905,0.6859839379370634,4.984736942744755,-1.2990671437937056,-0.09151005244755202,3.7283517263986017,1.8278108610139867
4,0.256,right,4,1.4429906031468533,-3.3308976180069925,-0.8087371612762234,-3.7102545891608387,2.8608842329545454,1.8711756993006996,-1.9900021853146843,-5.054906031468532,-1.0904378824300693,-1.8773218968531462,3.138828944493007,2.819568127185316,7.122077141608392,-2.174046656468531,-2.2059727381993004,-3.120561079545454,-1.1561680506993004,2.849616204108392,-0.7974691324300696,0.5565723339160843,2.911590362762238,1.7434713723776227
4,0.26,right,4,3.3317512565559437,1.585206785402098,-0.48247650786713264,-1.577353310751748,1.2340198863636362,0.5372801027097904,1.3147740930944056,-0.7247391280594406,-1.4965991040209792,-2.0393424934440563,1.2189958479020973,0.9485631555944057,1.491306545017482,0.5447921219405597,-4.12580583479021,-2.4036754261363633,-2.97834489729021,0.4415018575174825,-1.1059741040209792,0.44337986232517435,2.0659760161713288,1.7767632757867131
4,0.264,right,4,0.5751816542832168,-1.4155034418706296,-4.11795236013986,-1.1112666630244756,0.918856534090909,5.0561011254370625,-4.176170509178321,-1.6746681053321684,-4.253168706293706,-1.6220839707167833,0.7573481206293701,4.3931654283216774,3.861690067744755,-1.0887306053321675,-5.564016062062937,-2.621182528409091,-1.682180124562937,3.7884478802447554,-0.6398874562937066,1.6418883850524473,4.436359538898601,4.537771798513985
4,0.268,right,4,2.2419962849650346,-3.2643138111888113,-2.792934604458042,-2.0323426573426575,4.8805930397727275,5.795181381118881,-4.511309003496502,-3.42582222465035,-4.051197825611887,-3.470894340034965,1.935881501311188,4.009198809003498,3.282410948426573,-2.693400349650349,-4.141342056381119,-2.9563210227272725,-1.2848967438811185,3.2091687609265733,0.6363021743881118,1.4532342657342656,2.489892919580419,4.690914554195803
4,0.272,right,4,0.5862789554195811,-3.0157342657342654,-4.595136309003496,-2.2720443618881108,3.4201882102272734,7.166807801573428,-5.141635708041957,-3.6166958041958037,-5.511602655157341,-2.636377294580419,1.4520391717657344,6.3085596044580425,5.825912368881119,-1.6147426791958033,-4.722840635926572,-2.1218039772727266,-0.8898328234265724,3.408920181381119,0.10363171984265794,1.311188811188812,2.738472465034965,3.816447224650351
4,0.276,right,4,-1.2048254479895089,-8.468948044143355,-5.507334462412586,-4.795570640297201,2.2638494318181834,4.252656523164337,-5.663208861451046,-7.458581457604894,-3.884738308566431,-3.060294197989509,3.860153518356644,5.738158326048952,6.622698590472029,-1.355065832604893,-2.607695039335662,-0.25079900568181607,0.1510940231643379,4.059222027972029,2.0722929414335676,3.768131282779721,5.048930561625875,6.419874071241259
4,0.28,right,4,-1.1315832604895097,-4.831252731643356,-4.115732899912587,-6.236000327797202,3.167169744318182,2.9587112106643363,-1.2442635489510478,-6.604089270104894,-3.372042996066432,-3.71947388548951,3.7380832058566438,4.493041138548952,7.8189876529720275,-3.820886145104894,-2.2903122268356637,-2.4236505681818175,-0.01980441433566373,4.327776715472028,0.924832003933567,3.548404720279721,4.292094624125874,4.539991258741258
4,0.284,right,4,-0.6566187718531463,-9.776210118006992,-4.861471536276223,-6.346973339160838,3.3003373579545454,4.0196131993007,-8.923595935314683,-10.67014040646853,-4.70371913243007,-3.3421656468531467,4.945469569493007,5.212146252185315,7.512702141608392,-4.859593531468531,-1.8153477381993002,-0.8256392045454541,1.8223475743006998,7.048834954108392,2.9622964925699304,5.195244208916084,7.4526059877622375,7.3098776223776225
4,0.288,right,4,-4.693816925262236,-7.075127021416082,-7.238513439685313,-4.964249617569929,-2.0552201704545436,0.031243170891609873,-9.005715963723773,-6.406557309877621,-6.494823535839158,-1.0317075502622364,1.3477245410839171,4.397604348776225,1.473550863199302,-2.304994809877621,-2.190436516608391,2.9496626420454555,2.619133795891609,7.162027425699301,4.54033271416084,8.091639805506993,9.909548459353147,10.938695093968532
4,0.292,right,4,-2.7562281468531467,-13.682460118006992,-7.254049661276222,-6.249317089160837,0.6147904829545464,1.9200038243006998,-11.999767810314683,-11.45139040646853,-6.070906632430068,-2.072634396853146,3.1876570694930075,5.114490002185315,10.295905266608392,-5.152562281468531,-1.7665196131992997,1.9087357954545463,4.2637538243007,8.904303704108393,4.573624617569931,8.515556708916085,10.186980987762238,8.970033872377622
4,0.296,right,4,-3.3332878059440554,-6.398191652097901,-4.657281195367132,-5.5080173732517475,-3.3314098011363633,-7.348462084790209,-4.666671219405594,-4.31360631555944,-1.4721850415209785,0.13350906905594442,0.12036303540209797,-3.861007156905593,-6.199123142482517,2.76647180944056,2.343920727709791,5.237926136363637,1.5382566652097907,1.881931545017483,7.658674333479022,9.208028299825175,9.512265078671328,10.687896088286713
4,0.3,right,4,-6.611430561625872,-12.410709407779716,-7.251830201048949,-6.149441378933564,-2.3126775568181808,-5.060198590472026,-8.481923350087412,-6.664014696241257,-2.6018902972027957,-1.4356493116258726,0.8949546547202804,-3.2817280375874103,-1.762422148164334,2.418016553758742,3.8997623470279734,5.42658025568182,2.8011295345279734,2.803007539335665,9.507484702797203,11.593948044143358,11.458731697989512,13.220300207604895
4,0.304,right,4,-3.910347465034964,-10.58853256118881,-5.380825229458041,-6.866327032342656,-1.125266335227272,-5.044662368881117,-9.589434003496502,-7.722697224650349,-2.0004165756118875,-2.884956840034964,1.8870533763111892,-4.096269940996502,-1.551573426573426,0.6269121503496511,4.989517318618881,3.684303977272728,2.279556381118882,2.4767468859265738,9.425364674388112,10.144640515734265,11.767236669580418,13.479977054195803
4,0.308,right,4,-7.068639368444055,-11.305418214597898,-7.318414007867131,-7.973837685751746,-1.5491832386363622,-8.349438647290206,-6.253585281905592,-5.705207878059439,-1.7895678540209774,-3.7483268684440545,0.29126147290209864,-5.838546219405593,-5.491115329982517,2.3514327469405605,6.128100415209792,3.406871448863637,1.562670727709791,1.1250956075174834,13.005354020979022,12.748067362325175,13.345272891171328,18.427153900786713
4,0.312,right,4,-8.014129425262238,-11.372002021416083,-7.433825939685316,-6.966202742569931,-3.2270951704545467,-6.755866204108392,-7.443215963723776,-5.527651059877623,-2.0514641608391613,-3.180145050262239,0.2735057910839151,-4.586770651223776,-5.899496011800699,2.870786440122377,5.377922858391607,3.389115767045454,2.179680670891608,2.035074300699299,12.352832714160838,11.851405430506993,13.327517209353145,18.80002321896853
4,0.316,right,4,-12.342076868444055,-12.5749494645979,-10.541070257867132,-8.120322060751747,-4.283558238636363,-3.0760011472902087,-9.378585281905591,-5.21692662805944,-3.2544116040209796,-1.8440299934440538,0.24243334790209722,-0.17448371940559168,-4.416896579982517,6.3553389969405565,4.028491040209791,5.8971058238636385,1.416186352709791,0.6856424825174844,14.177229020979018,10.990254862325175,11.97808539117133,19.45254452578671
4,0.32,right,4,-6.99095826048951,-10.446487106643357,-6.7036235249125875,-4.9176409527972025,-1.0320490056818186,-4.756132539335664,-10.03332604895105,-7.190026770104895,-2.6884492460664338,-0.5944738854895103,3.7380832058566424,0.8797598885489513,-1.6048404720279723,0.7689576048951051,3.2760940231643354,4.021661931818182,2.763398710664335,4.0348079654720275,7.858425753933565,8.52887347027972,10.981547749125875,10.106397508741257
4,0.324,right,4,-4.689378004807692,-7.851938100961537,-3.327824519230769,-4.764498197115383,-0.24414062500000022,-5.384239783653846,-7.63408954326923,-6.206805889423077,-0.9728064903846159,-0.8319561298076925,4.525991586538461,0.3981370192307705,-0.9145883413461546,-1.7146183894230762,3.331580528846152,2.6123046875,3.014197716346154,3.992638221153845,5.570162259615384,6.387094350961539,8.546799879807692,6.1579777644230775
4,0.328,right,4,-5.790230277534963,-9.001618498688812,-4.477504916958042,-4.156366094842655,-0.9543678977272714,-4.971420181381118,-10.932207440996502,-6.819376912150349,-2.4642837631118875,-0.6144490275349642,3.1321705638111883,-0.3609183784965021,-3.2849718640734262,-1.3994550371503485,3.3049470061188817,3.904030539772729,4.061782943618881,3.9171765734265733,8.668528736888112,8.362413953234265,10.229150732080418,9.646969241695803
4,0.332,right,4,-0.7165441979895101,-7.297073044143357,-1.4546000874125873,-1.3287737652972025,0.31072443181818177,-4.292265351835664,-9.227661986451048,-7.263268957604895,-1.882785183566433,0.3576745520104898,4.201950393356643,1.0018302010489513,0.9098079654720281,-3.161706457604895,1.200898710664336,2.971857244318182,3.4225783981643363,4.742815777972028,2.5605741914335662,4.354068782779719,7.343852436625874,3.2460459462412596
4,0.336,right,4,-0.578937663898601,0.6530334899475535,0.6361314466783222,2.1779733937937054,0.05770596590909148,-1.5179400677447557,-5.818571077360138,-2.8287874235139854,-1.012756774475524,3.571452961101398,3.2653381774475516,1.2370929851398607,-3.0053198754370625,-1.998709298513986,0.02014586975524546,3.304776278409091,1.3629193072552455,2.1948754370629375,-2.1846317744755246,0.43894094187063015,3.8193495957167825,-3.794081894667831
4,0.34,right,4,-3.4642359593531458,-13.804530430506992,-4.837057473776222,0.2692375983391611,0.2485795454545461,-3.9149571131992986,-15.100353747814683,-9.81564821896853,-2.384383194930069,3.0787327906468533,4.8722273819930075,1.037341564685316,-0.27538379589160755,-1.7101794689685303,2.5059413243006996,5.253462357954547,5.118246011800701,4.534186516608393,5.135148055069929,7.368095771416084,9.478973175262238,6.406557309877622
4,0.344,right,4,-2.0460008741258737,-11.165592220279718,-2.9305411385489513,-1.3886991914335662,-0.13982599431818196,-4.938128277972028,-10.117665537587412,-9.666944383741258,-1.259116859702797,1.1278272508741263,4.97210309222028,-1.5483296000874125,-1.5426955856643354,-1.0731943837412594,3.4358951595279703,3.156072443181817,3.4114810970279703,2.583280976835664,5.527992515297202,7.858596481643356,8.30931763548951,7.434167395104895
4,0.348,right,4,-2.6741081184440563,-9.108152589597902,-4.5840390078671325,1.1570216892482525,0.9898792613636368,-0.39045427229020985,-11.868819656905593,-6.58411412805944,-3.7426928540209783,2.5505012565559433,3.9533708479020984,2.3645787805944067,-1.291896579982518,-0.9688797530594395,0.6593504152097909,4.432262073863638,2.44157697770979,2.980564357517482,4.16746339597902,6.107442362325174,6.704647891171328,2.7044976507867124
4,0.352,right,4,2.0577810861013988,-6.329388385052447,-0.7310560533216779,2.6662546437937067,1.0830965909090913,-4.301143192744755,-11.629117952360138,-6.539724923513986,-0.9639286494755241,3.229656086101399,4.3883850524475525,-0.911344514860139,-5.7396948754370625,-0.8756624235139852,2.461552119755245,3.8418856534090913,2.632450557255245,1.3159691870629373,3.284118225524475,4.49167531687063,5.137708970716784,1.4305274803321684
4,0.356,right,4,2.601548841783217,-10.131323754370628,-1.1150226726398602,1.7940067744755233,2.89639559659091,-1.9507348120629358,-12.45253769667832,-8.339707167832167,-0.32250464379370575,4.261705091783216,6.348168433129371,1.341407615821679,-2.1197552447552455,-0.4295509178321665,2.7123511254370647,4.434481534090908,1.6625464379370625,0.1019244427447558,1.9724172312062926,3.521771197552449,3.6306954763986026,-0.4182828889860142
4,0.36,right,4,1.4940381883741243,0.08929059222027802,0.2188729239510493,2.2489961210664347,0.568181818181818,-4.0836360904720275,-6.3334858500874125,-3.001905321241258,-0.06282779720279662,3.2030225633741245,3.1410484047202787,-0.352040537587412,-2.738984648164336,0.6113759287587414,1.8489810970279723,2.594549005681818,-0.030901715472028347,-0.9079299606643358,0.18131282779720084,1.8771511691433578,1.93724732298951,-2.5023560423951046
4,0.364,right,4,2.2730687281468533,-2.2566788680069925,-1.0528777862762226,1.8561516608391608,-1.973100142045454,-5.6483555506993,-5.554455310314683,-2.6623279064685312,-0.9439535074300693,3.151974978146854,1.2833601944930066,-2.6491818728146845,-9.528313483391608,3.0993908435314688,2.3350428868007,4.301313920454545,1.2364100743006996,-0.031243170891609027,2.86464024256993,4.023369208916083,4.6205747377622375,1.2551901223776218
4,0.368,right,4,2.097731370192308,-1.2113131009615372,0.7249098557692316,0.3624549278846163,-1.5624999999999991,-8.167442908653845,-3.0442457932692304,-2.0564152644230766,0.003756009615384951,1.316481370192308,0.08263221153846215,-5.070612980769229,-10.191932091346153,2.3869441105769242,3.380408653846155,3.3447265625000004,1.0610727163461537,-1.0854867788461529,4.447115384615384,4.678109975961539,4.591721754807691,3.9118840144230758
4,0.372,right,4,-0.11950939685314553,-4.014491368006992,-2.6153777862762233,-0.48759833916083856,-4.951615767045454,-7.650308675699299,-5.261486560314683,-2.2717029064685303,-1.4810628824300696,1.6871312281468542,-1.1092179305069922,-4.260509997814684,-8.405266608391608,4.56423459353147,2.725667886800699,4.643110795454547,1.3828944493007003,0.06641307910839207,6.77089024256993,5.878837958916084,7.550262237762238,7.358705747377623
4,0.376,right,4,0.44867242132867247,-5.106465799825174,-1.6565709680944036,-3.4350415209790195,-3.553355823863635,-7.130954982517481,-2.300726617132865,-3.851958588286712,-0.7175685642482501,-1.3579682036713272,-0.4433798623251737,-3.5946719296328653,-1.5382566652097887,4.937103911713289,3.049709079982519,3.0628551136363655,-0.29501748251748083,-0.0001707277097886465,5.581259560751748,4.6403791520979025,6.897740930944058,6.364387565559441
4,0.38,right,4,1.6383031031468538,-2.8914444930069925,-1.0040496612762233,-3.8079108391608387,-2.7543501420454537,-6.527261800699301,2.209216564685316,-1.9299060314685306,-0.45567225743006934,-2.2679468968531467,-1.5486710555069931,-6.311291247814685,-5.426750983391608,5.247828343531467,2.8721522618007,1.7622514204545459,-0.5702305506993002,-1.4960869208916079,5.647843367569929,5.195244208916084,6.085418487762238,6.333315122377623
4,0.384,right,4,3.5403805179195804,-1.4288202032342654,-0.12736287150349612,-2.9312240493881117,-3.391335227272727,-8.726746885926572,1.523403354458043,-2.469234866695804,-0.8973448426573422,-3.100244482080419,-1.5508905157342652,-7.192416958041956,-4.403579818618881,4.073733883304197,3.1629015515734267,0.0998757102272732,-1.353700010926573,-0.6194001311188806,5.3526551573426575,5.485993498688811,7.010933402534965,7.94242378715035
4,0.388,right,4,3.7734238417832175,0.07375437062937164,-0.3826007976398595,-3.088805725524475,-2.13290127840909,-6.247609812062937,0.8287123033216799,-1.4061134178321673,-1.5432077687937056,-4.2832167832167825,-2.099097191870629,-6.226951759178322,-4.805302119755244,2.597792832167833,3.1029761254370634,-0.98544034090909,-1.3647973120629364,-0.386356807255244,5.536870356206295,4.8401305725524475,6.560382976398602,7.638357736013986
4,0.392,right,4,-0.42579490821678145,-1.6352300043706274,-3.3122882976398587,-3.4794307255244736,-4.964932528409088,-5.808156687062934,0.9751966783216807,-0.9666602928321661,-2.4709421437937045,-2.085951158216781,-2.636206566870628,-4.27382675917832,-7.734989619755243,5.332167832167834,2.077585500437065,2.8719815340909105,0.2953589379370649,-0.6793255572552429,5.536870356206295,6.402630572552449,7.634601726398602,9.347342111013987
4,0.396,right,4,-2.2834831184440576,-2.614011964597903,-4.242242132867134,-6.948447060751749,-4.918323863636365,-7.95881364729021,2.437820968094405,-0.9200516280594424,-1.7407397290209803,-3.162389368444057,-1.5642072770979036,-3.690108719405595,-5.002834079982518,7.038932746940557,2.758959790209788,3.1139026988636345,0.24431135270978888,-0.7792012674825186,6.95066652097902,6.498067362325173,7.388241641171327,9.393950775786712
4,0.4,right,4,-1.9461251638986015,-1.3489196350524475,-4.1490248033216774,-6.464604731206292,-2.9696377840909087,-6.937861942744755,1.0173664226398607,-1.4127717985139858,-2.0381473994755246,-3.2644845388986012,-0.34794307255244766,-1.4484538898601391,-2.370554250437063,5.081368826486015,2.1685833697552446,2.425870028409091,1.021122432255245,0.6812035620629372,5.432555725524475,5.175269066870628,5.674818345716783,6.020371230332168
4,0.404,right,4,-4.11009888548951,-6.100783981643357,-6.5571391499125875,-10.435219077797203,-4.157049005681818,-6.367460664335664,2.5155020760489513,-3.381433020104895,-2.981417996066433,-6.69798951048951,0.17363008085664314,-0.2921151114510484,2.5455501529720275,3.991613854895104,2.738984648164335,0.8478338068181815,1.3962112106643354,3.8883235904720284,7.711941378933566,6.77106097027972,8.100688374125873,10.399366258741258
4,0.408,right,4,-2.993710391171328,-4.789082987325174,-5.977860030594405,-10.19773683347902,-3.1871448863636354,-1.9307596700174818,1.6787655703671347,-3.827544525786712,-4.404092001748251,-7.583554141171327,-0.17482517482517446,1.3613827578671338,2.53889177229021,2.275971099213288,1.2674825174825184,-0.1842151988636358,1.9754903299825184,4.614087084790209,6.8263767482517475,6.7155744645979025,7.166295618444056,8.83020787805944
4,0.412,right,4,-4.376434112762237,-2.3632129589160837,-7.067615002185314,-7.332413680069929,-5.595259232954545,-3.313483391608391,-2.7313019012237754,-2.866518247377622,-4.273143848339161,-3.9369809877622375,-1.2157520214160835,2.908346536276224,-0.406331949300699,3.1393411276223784,0.22655567089160872,2.6811079545454546,2.4482353583916088,5.379800863199301,5.883106151660838,6.455897618006993,8.127321896853147,8.228734156468532
4,0.416,right,4,-3.1779255900349646,-4.094391936188811,-5.722622104458042,-7.8917176573426575,-4.103781960227272,-3.091537368881119,-0.849199628496503,-4.40238472465035,-2.537525950611888,-3.1290974650349654,0.8128346263111882,3.7650581840034967,3.9171765734265724,3.2636309003496504,0.8391266936188813,3.147194602272727,2.1330720061188813,5.504090635926573,2.882395924388112,4.627062390734265,6.054346044580419,2.054195804195804
4,0.42,right,4,-1.4622828343531469,-4.380702305506993,-4.251119973776223,-8.324512401660838,-2.5834517045454546,-4.012613363199301,1.0129275021853148,-5.274632593968532,-1.1636800699300704,-4.587282834353147,2.5284773819930058,1.3791384396853148,5.193366204108391,1.3171642810314683,2.6035975743006987,1.0054154829545454,2.1397303868006983,4.778327141608392,1.7660074300699298,4.145439521416083,6.305145050262237,1.865541684877622
4,0.424,right,4,-4.8758126638986,-1.153607135052447,-6.0044935533216774,-9.101323481206292,-5.459872159090909,-3.812861942744754,1.359163297639861,-2.4381624235139854,-3.210022399475524,-2.727375163898601,0.8239319274475528,2.6042804851398613,2.7563988745629375,2.6887907014860146,1.3385052447552452,2.5723544034090917,2.8277630572552455,5.1733910620629375,2.4052119755244763,3.759253441870629,7.627943345716783,2.8465431053321684
4,0.428,right,4,-6.2030498798076925,-1.5042818509615383,-7.038762019230769,-7.987154447115383,-3.7109374999999996,-1.7221304086538463,-0.0657301682692305,-2.154071514423077,-4.927884615384615,-2.931565504807693,0.5220853365384612,3.8649338942307696,3.9682241586538463,1.9963191105769234,0.3530649038461542,3.1005859375,4.381385216346153,6.629356971153846,2.054537259615384,3.6527193509615383,6.9354717548076925,0.7868840144230771
4,0.432,right,4,-3.697279283216782,-3.6371831293706287,-5.607210172639858,-8.264586975524475,-2.42587002840909,-2.585500437062937,3.1724623033216783,-2.7733009178321675,-2.5685983937937062,-2.867201158216783,2.197777808129371,1.732032615821679,1.0052447552447554,2.353652207167833,2.4193823754370634,2.4325284090909096,3.469187062937063,4.545283817744755,2.2653859812062933,3.131146197552448,5.583820476398601,0.11882648601398639
4,0.436,right,4,-7.514750874125872,-5.159732845279719,-7.17858801354895,-9.982449191433565,-4.339044744318181,-3.424456402972027,3.896006337412589,-2.733350633741258,-1.6009137347027962,-2.3389696241258737,2.04241559222028,1.0883891499125886,2.021757539335665,5.713914991258742,4.6077701595279725,4.5720880681818175,1.9466373470279725,1.899687226835665,4.6490862652972025,4.587112106643357,4.69603638548951,2.5513548951048954
4,0.44,right,4,-6.331778572989508,-5.734573044143355,-6.679209462412586,-8.067055015297202,-2.0330255681818175,-2.485624726835663,0.24499426354895298,-3.308190832604894,-0.7109101835664321,-0.814200447989509,2.3464816433566438,1.6854239510489524,1.3004329654720292,4.113684167395106,4.374726835664336,4.729669744318183,3.0807815231643363,2.5943782779720297,2.6582304414335676,5.086490657779722,3.9258836866258755,0.023389696241259927
4,0.444,right,4,-5.4795058457167825,-1.0737065668706294,-3.82498361013986,-9.216735413024475,-3.67098721590909,-3.684133249562936,7.493751365821678,-0.5027931053321677,0.9714406687062939,-3.379896470716783,1.8315668706293702,-1.8568345716783212,-0.19104430725524496,5.1612693946678325,5.812937062937063,1.9198330965909092,0.7592261254370629,0.6634478802447552,3.7058156687062933,3.497357135052447,1.4578439138986012,-0.3938688264860139
4,0.448,right,4,-6.957666357080419,-2.6006952032342654,-7.744550371503496,-7.37458342438811,-3.6843039772727275,1.2830187390734271,0.2050439794580425,-0.467281741695804,-2.8992979676573425,-2.465478857080419,0.3045782342657346,3.012661166958043,1.7487639313811192,4.122562008304196,3.016417176573427,3.469016335227273,1.8201281140734265,2.993881118881119,4.4737489073426575,4.460602873688812,2.7140584025349654,0.5693769121503497
4,0.452,right,4,-5.20873169798951,-0.021682419143355672,-3.2612407124125866,-10.020180015297202,-3.107244318181818,-4.829374726835664,6.592650513548953,-0.3296752076048941,0.5586210664335673,-3.548575447989509,1.2234347683566436,-0.4630135489510478,2.423479840472029,3.869543542395106,4.618867460664337,0.9210759943181828,1.1764846481643363,2.985003277972029,2.804714816433567,2.547428157779721,2.0215868116258746,-0.9531728037587401
4,0.456,right,4,-9.148273601398602,-2.887005572552446,-5.5894544908216774,-11.860112543706292,-6.8026455965909065,-9.354854130244751,7.633577360139862,1.1018766389860155,0.5741572880244767,-2.7517892263985995,1.1413147399475536,-1.3752117023601371,2.390187937062938,7.205392263986015,7.026981807255246,3.4756747159090926,1.6314739947552463,1.7310082495629389,5.115172913024477,4.516089379370631,3.5507949082167847,2.6756446678321693
4,0.46,right,4,-8.364804141171328,5.318338887674825,-4.659500655594404,-8.19578370847902,-9.095348011363635,-7.204197170017481,7.196343695367134,4.522064849213287,-0.05838887674825094,-1.8218353911713279,-2.0791220498251746,-1.2753359921328655,-0.9279051027097898,8.672455474213288,4.831935642482518,3.282581676136364,0.12002157998251814,0.5125245847902103,3.750204873251749,3.199949464597902,1.8440299934440565,0.43177037805944135
4,0.464,right,4,-8.644456129807692,-2.1878756009615388,-6.696965144230769,-10.477388822115383,-9.08203125,-6.849083533653846,6.379582331730768,1.1174128605769227,-0.33804086538461636,-2.931565504807692,-1.0892427884615392,-3.312800480769231,-1.7934945913461544,8.441631610576923,6.896033653846153,3.0517578124999996,1.1099008413461535,1.4535757211538454,6.937349759615384,6.435922475961537,5.324143629807692,6.255634014423077
4,0.468,right,4,-8.43804632867133,-0.6631064248251758,-7.222977218094407,-10.759260270979018,-8.436168323863635,-5.714939357517481,5.023492132867133,1.519135161713286,-1.7429591892482514,-3.9458588286713296,-2.0058798623251755,-3.789984429632868,-1.4894285402097915,6.450775786713287,6.5165059549825175,3.0140269886363624,1.7069356424825164,1.5135011472902098,7.4855564357517475,7.081785402097901,6.555944055944055,7.34095006555944
4,0.472,right,4,-8.300439794580418,-1.111437390734264,-6.743573809003495,-12.37946623688811,-10.398171164772725,-6.553895323426572,7.358364291958044,0.8266635708041975,-0.8241026551573413,-4.589502294580418,-1.868273328234264,-3.3594091455419566,1.5290373688811205,6.832522945804198,5.970518739073428,3.053977272727274,1.1609484265734282,0.7722014313811207,7.3790223448426575,7.561188811188812,6.302925590034967,7.380900349650351
4,0.476,right,4,-6.979860959353144,-2.085780430506992,-6.106588723776222,-12.816699901660837,-8.686967329545455,-4.2079258631993,8.923083752185317,0.5847424060314693,-0.43125819493006906,-4.733767209353146,-0.30355386800699213,-2.331799060314683,1.6289130791083928,6.785914281031469,5.7774256993007,2.9585404829545463,1.0655116368007005,1.4091865166083923,4.256241805069931,5.366142646416085,4.889129425262238,5.039369809877623
4,0.48,right,4,-8.406973885489508,0.5398410183566443,-7.191904774912586,-13.1695940777972,-8.209783380681815,-3.633085664335663,9.497923951048953,0.8666138548951055,-1.3212617460664327,-5.672598885489508,-0.6564480441433564,-0.24328698645104704,3.7662532779720284,4.821691979895106,3.9596877731643363,1.9708806818181832,1.7380080856643367,1.8375423404720288,3.854519503933567,5.843326595279721,4.926860249125875,4.881788133741259
4,0.484,right,4,-7.086395050262237,-2.5829395214160833,-7.580310314685313,-11.94667149256993,-6.938032670454545,-1.9218818291083908,3.6895965362762255,-2.3538229348776216,-2.6862297858391604,-4.840301300262237,1.298896416083916,1.663229348776225,5.575113363199301,2.4313333151223784,3.5712822333916088,1.0453657670454555,2.716790045891609,4.427652425699301,3.514942089160839,5.064296055506993,5.759157834353147,7.178929468968532
4,0.488,right,4,-3.728351726398601,0.4333069274475527,-4.612891990821678,-8.344487543706292,-3.433504971590908,3.145145869755245,3.336702360139861,-1.6813264860139854,-3.185608336975524,-4.997882976398601,1.3366272399475523,4.825960172639862,10.105031687062937,-0.8512483610139854,0.7769818072552451,-0.918856534090909,1.3385052447552457,4.5142113745629375,-0.9395145869755237,0.5610112543706303,1.9882949082167836,0.33189466783216837
4,0.492,right,4,-2.7495697661713283,6.001932637674826,-3.0481725305944054,-6.38914308347902,-4.651988636363637,3.000880954982518,3.827203070367133,1.1529242242132864,-2.353310751748251,-3.5796478911713283,-0.4189657998251747,5.804742132867133,9.47248552229021,0.4693304742132872,-1.7598612325174823,-0.03773082386363604,0.6083028299825177,3.7351808347902096,-3.427529501748251,-2.073488035402098,-0.06026688155594384,-3.5233077469405587
4,0.496,right,4,-6.165319055944054,1.7561052229020986,-1.7275936953671323,-9.023642373251747,-5.186878551136362,-2.7586183347902087,6.124344405594405,0.32506555944055937,0.3832837084790215,-3.1379753059440554,0.9016130354020981,1.9495397180944065,7.033298732517483,3.0594405594405605,2.7345457277097904,0.7457386363636367,0.2687254152097906,1.784275295017483,-0.7885912915209785,0.41896579982517523,1.260311953671329,0.04336483828671389
4,0.5,right,4,-1.7929824082167851,-3.6371831293706305,-2.2868976726398613,-7.873961975524475,-0.6192294034090923,1.5648901879370614,0.6822279283216773,-5.117050917832169,-1.6896921437937076,-4.966810533216784,2.637230933129369,4.3687513658216774,12.870479130244751,-0.1854102928321688,0.6615698754370614,-1.4737215909090917,0.5883276879370622,4.545283817744754,-1.9826608937937071,0.494427447552447,2.6053048513985995,0.6071077360139847
4,0.504,right,4,5.522358500874127,6.754329654720281,-0.39147863854894954,-3.244167941433565,0.15314275568181965,7.0247623470279725,3.9936625874125884,-0.8290537587412584,-3.944663734702794,-4.243266499125873,0.479915592220282,5.873545399912588,10.664335664335665,-2.440381883741258,-3.546526715472028,-3.4845525568181817,-0.9342220279720271,3.6086716018356646,-8.143882484702795,-4.201950393356642,-1.798104239510487,-6.872473229895103
4,0.508,right,4,3.2429728474650354,3.9866627513111883,2.553745083041959,-5.132928594842655,0.9499289772727281,-1.8952483063811183,5.2299019340034985,-0.42289253715034936,1.0025131118881128,-4.032417777534965,1.5696705638111887,-0.6538871284965029,4.381043760926573,-1.7900800371503487,1.9865876311188815,-2.590110085227272,0.2531891936188823,1.475770323426574,-4.075611888111888,-2.184461046765734,0.17055698208041956,-4.024905758304194
4,0.512,right,4,6.900643302010488,4.031051955856641,1.572743662587411,-3.037758140297205,3.43572443181818,5.033906523164334,3.662963013548949,-0.5249877076048972,-0.3691133085664359,-3.4997473229895117,1.565231643356642,2.4178458260489486,7.892229840472027,-1.0132689576048968,-0.7033981643356668,-2.8386896306818206,-1.3137497268356668,-0.18882484702797456,-7.595675808566436,-4.825618717220282,-3.788960063374127,-6.8125478037587435
4,0.516,right,4,9.932425972465033,4.279631501311188,2.700229458041958,-4.009881719842656,4.2214133522727275,3.7199860686188813,6.499433184003498,-0.9111737871503498,0.22126311188811237,-4.423042777534965,1.5696705638111887,0.5668159965034973,8.043153135926573,0.06538871284965067,0.03346263111888144,-3.3713600852272716,-3.1159514313811183,-2.4793078015734267,-6.224049388111888,-5.162976671765734,-5.34702114291958,-6.808108883304196
4,0.52,right,4,6.259219296328672,3.7314248251748245,3.079757156905595,-3.2885571459790204,3.4290660511363638,-1.418064357517482,4.291070257867134,-1.2640679632867133,1.7726658107517488,-2.1392182036713283,2.583963887674825,-1.2020938046328664,3.3445558347902096,-0.9710992132867127,1.2430684549825177,-1.4781605113636365,-1.0274393575174818,-1.6114988527097895,-3.696084189248251,-1.707277097902098,-3.1608528190559446,-6.770378059440559
4,0.524,right,4,7.127028245192308,8.261343149038462,4.58233173076923,-1.2000450721153846,2.34375,0.32865084134615397,5.110051081730769,0.9709284855769219,1.5174278846153846,-1.369065504807692,1.3033353365384612,-1.35967548076923,-0.4263070913461538,-1.2751652644230762,-0.13521634615384584,-2.2705078125,-2.1127554086538463,-2.7944711538461537,-4.439603365384615,-2.0601712740384612,-4.9297626201923075,-7.172100360576923
4,0.528,right,4,2.663693728146854,1.2101180069930075,1.827981588723777,-3.807910839160838,3.105024857954546,1.7246913243007,2.5998415646853155,-2.613499781468531,-0.504500382430069,-3.390993771853146,2.8458601944930075,0.6223025021853159,4.094733391608392,-3.29709353146853,0.9678553868006998,-1.3139204545454537,-1.3514805506993002,-1.0566337958916074,-1.2369222574300693,1.0936817089160844,-1.8735658872377614,-2.3092630026223766
4,0.532,right,4,2.5904515406468525,-1.743983555506994,0.4852081512237756,-2.2698249016608396,1.273970170454544,-2.2059727381993013,1.3058962521853148,-4.493382593968532,0.008194930069929994,-0.8275172093531475,3.212071131993006,-0.5251584353146856,2.1660224541083903,-2.4426013439685317,1.5782069493006985,0.32182173295454525,1.2608241368006985,1.0185615166083906,-0.8707113199300708,2.582939521416083,-0.48196432473776357,-1.9430520651223782
4,0.536,right,4,1.3808457167832164,3.8823481206293704,0.3498210773601399,0.6221317744755241,-0.5704012784090914,2.785593312937063,0.24277480332167833,-1.2108009178321681,-1.054926518793706,1.7226425917832167,1.46535593312937,2.1226576158216783,1.298213505244755,0.009902207167832128,-1.1938988745629373,2.4325284090909087,-1.0230004370629369,-1.4605755572552446,-3.593989018793706,-0.8239319274475523,-2.5216482736013988,-4.861642263986014
4,0.54,right,4,2.013391881555945,3.0988786604020984,0.34760161713286825,0.815224814248253,0.20862926136363819,3.4669676027097918,1.4124303430944076,-1.9942703780594393,-1.7407397290209785,0.8415168815559453,1.2678239729020995,2.1204381555944063,2.6631815450174834,-1.603645378059439,-1.6843995847902087,1.3072620738636371,0.14665510270979198,0.002048732517483451,-4.084489729020977,-1.509745137674824,-1.6449614838286706,-5.449799224213286
4,0.544,right,4,1.5916944383741263,9.806087467220278,2.220826048951049,-0.1924101289335661,-3.5822088068181817,-1.9840267154720272,4.0669047749125875,1.6855946787587408,0.08365657779720313,0.956928813374126,-1.0581703452797202,-2.2075092875874116,-1.7624221481643354,0.6113759287587417,-0.8853939029720276,1.1297052556818183,-0.6168392154720278,-0.8591018356643353,-3.1878277972027966,-2.0290988308566433,-0.8459558020104893,-2.941809167395104
4,0.548,right,4,2.404016881555942,2.8059099104020957,1.2753359921328644,0.8152248142482497,0.15980113636363508,1.660326977709788,-0.8824915319055955,-1.359504753059443,-1.1059741040209807,0.3532356315559414,0.6818864729020963,0.16731315559440457,1.4424784200174807,-2.4337235030594426,-0.36604020979021135,0.3795276988636342,0.6837644777097888,1.1739237325174798,-4.426286604020981,-1.7538857626748277,0.40581976617132715,-2.080658599213289
4,0.552,right,4,6.929496284965035,4.499358063811188,4.9707372705419575,0.06726671765734177,2.0485617897727266,0.91236888111888,2.715253496503496,-2.4980878496503505,1.2222396743881114,-1.7130818400349652,1.3011158763111885,-2.143144940996504,3.7706921984265724,-3.6211347246503496,-1.2116545563811187,-2.175071022727273,-0.9919279938811203,-0.20879998907342767,-6.199635325611889,-3.9178594842657355,-0.7815914554195814,-2.975101070804196
4,0.556,right,4,6.6542832167832175,4.956566870629372,5.42794607736014,1.1592411494755255,2.749911221590909,3.1273901879370642,3.5142591783216797,-1.3572852928321668,1.3376516062062944,-0.914076158216783,1.9536371831293717,0.41367324082167944,6.229854130244756,-1.7967384178321666,-1.8286644995629364,-2.59676846590909,-3.0249535620629358,-0.5328411822552438,-8.379145268793705,-6.73213505244755,-3.4982107736013983,-6.863595388986013
4,0.56,right,4,4.117440177010489,3.8845675808566433,4.258290537587412,0.6731793597027964,1.9220525568181805,-0.38601535183566565,3.0281973885489504,-1.7456908326048957,1.0957304414335653,-1.9372473229895109,2.981247268356642,-0.3653572989510497,5.1090267154720275,-2.136315832604895,-0.6545700393356654,-2.9363458806818183,-0.8254684768356647,0.4459407779720267,-5.251925808566435,-4.776790592220281,-2.372944438374127,-4.127000928758743
4,0.564,right,4,2.421772563374127,4.727962467220281,1.1466072989510505,1.4189179960664347,0.51935369318182,4.998395159527973,0.014170399912588737,-1.2440928212412585,-2.0159527972027966,0.12685068837412644,1.3832359047202807,3.700693837412589,5.073515351835664,-1.3905771962412568,-2.301409527972026,-1.9952947443181814,-0.9098079654720265,1.6311325393356657,-4.555015297202796,-5.2517550808566416,-2.359627677010488,-5.139074792395104
4,0.568,right,4,-0.5500846809440553,1.7072770979020981,-0.2139218203671326,0.2048732517482525,1.2096058238636365,5.883959790209791,-2.9088587194055933,-2.55579381555944,-3.2788256665209787,-1.0383659309440552,2.366456785402098,6.588211593094407,9.181736232517482,-2.3604813155594395,-2.001782397290209,-1.2562144886363635,-0.31721208479020946,3.297947170017483,-3.1811694165209787,-3.096659200174824,-2.890078671328671,-4.790619536713286
4,0.572,right,4,-1.0894135161713285,1.4609170126748259,0.4186243444055949,-0.09031495847902038,1.060901988636364,4.4657247049825175,-0.3720156796328664,-2.8998101507867133,-2.402138876748251,0.08246148382867177,3.0966592001748254,5.755914007867133,4.10139177229021,-1.8255914007867127,-0.7832987325174822,-0.5260120738636362,0.5594747049825178,2.56330583479021,-3.134560751748251,-2.7082536604020975,-2.1598762565559433,-5.574088996940559
4,0.576,right,4,-0.8630285729895099,-2.0724636691433562,1.377431162587413,-2.3053362652972025,1.2384588068181819,-1.1672653518356644,0.14733801354895187,-5.505456457604895,0.2168241914335669,0.21119017701048987,4.641403518356642,3.3455802010489517,3.4976985904720284,-1.2574095826048945,1.4938674606643358,-0.10431463068181804,1.127656523164336,2.008440777972028,-1.4433320585664333,-0.3822593422202792,-0.2733350633741256,-3.931688428758741
4,0.58,right,4,-4.98900513548951,-0.6320339816433571,-1.0395610249125875,-1.548500327797203,-2.252752130681818,-0.6057419143356643,-1.1954354239510485,-3.283776770104895,-1.2724336210664333,1.9934167395104891,2.273239455856643,3.321166138548951,1.1295345279720277,-0.5005736451048948,0.34640652316433534,2.849786931818181,2.226289335664336,2.2769954654720275,1.3154570039335665,1.6929359702797202,0.3370164991258735,-2.4424306162587412
4,0.584,right,4,-0.1816542832167829,2.1245356206293704,2.7423992023601405,0.08502239947552533,-0.9610262784090903,-1.6089379370629362,-3.4681626966783203,-4.189316542832167,0.11694848120629497,1.6738144667832182,3.1255121831293713,1.2437513658216794,-0.3619427447552439,-2.577988417832167,0.46625737543706336,1.30948153409091,1.613718312937063,0.6878619427447557,-0.2736765187937054,1.2268493225524477,-0.2755545236013975,-2.5178922639860133
4,0.588,right,4,-1.2492146525349646,-1.335602873688811,-0.08297366695804155,0.7752745301573426,1.1452414772727277,0.9367829436188816,-5.170488690996502,-5.208048787150349,-1.5365493881118872,1.2898478474650352,3.2786549388111883,1.7386909965034971,0.13299688592657363,-3.547892537150349,0.7658845061188813,1.609108664772728,2.255142318618882,1.4269421984265742,1.8814193618881114,2.698351453234265,0.31704135708041953,-2.120608883304195
4,0.592,right,4,1.3719678758741258,6.754329654720281,3.6612557364510496,3.0546601835664324,1.0320490056818177,3.557965472027973,-3.525868662587412,-1.95210063374126,-0.7220074847027969,2.446186625874125,0.8217124672202799,1.9672953999125884,-0.1755080856643352,-2.733350633741258,-1.3004329654720281,1.2029474431818188,-0.05531577797202735,-1.9577346481643356,-2.186851234702798,-0.8328097683566436,-4.532479239510489,-5.895910729895106
4,0.596,right,4,2.313019012237762,-1.7284473339160842,3.528088122814684,0.43125819493006917,3.3891157670454537,1.5205009833916077,-3.512551901223776,-6.040346372377623,0.8538092766608382,2.5083315122377616,4.594794853583914,2.3712371612762237,5.892496175699299,-3.3547994973776225,1.349602545891608,1.1674360795454535,0.8369072333916076,-0.8213710118007003,-2.8571282233391617,-1.0148055069930078,-4.567990603146853,-6.859156468531468
4,0.6,right,4,4.3837754042832175,2.441918433129371,5.94064138986014,1.9160770869755255,5.362215909090909,1.5404761254370642,2.0250013658216792,-3.188339980332167,2.0944875437062946,1.7470566542832173,3.8335199956293704,-0.8314439466783202,0.6878619427447561,-3.0906837303321666,1.9066870629370634,-1.44930752840909,-1.242726999562936,-2.9986614947552432,-3.2277780812937054,-2.801470989947552,-6.256999836101397,-8.792306326486012
4,0.604,right,4,5.504602819055945,0.6818864729020984,5.206000054632867,1.4255763767482519,6.141246448863636,3.00310041520979,-0.5162805944055943,-4.215950065559441,1.115705583479021,-0.2571159309440562,3.635988035402097,0.631180343094406,4.494236232517482,-3.3370438155594404,0.7325926027097904,-2.2327769886363638,-1.0984620847902098,-1.7313497049825175,-4.157731916520979,-2.803690450174826,-5.429141171328672,-6.792572661713287
4,0.608,right,4,3.2540701486013983,4.779010052447553,4.469139259178322,1.9094187062937067,5.453213778409091,3.193973994755245,2.115999235139861,-0.5582796110139863,0.5741572880244761,0.12907014860139904,1.3854553649475527,-0.4474773273601389,-1.320749562937063,-1.5348421110139852,0.33752868225524524,-2.6766690340909083,-2.274776005244755,-3.3959448754370625,-2.550842711975524,-2.6128168706293704,-5.091783216783217,-5.136855332167831
4,0.612,right,4,1.0568045236013994,5.364947552447553,3.6390611341783226,-0.43433129370629253,0.9610262784090919,-2.763057255244754,15.543733610139856,2.859689138986015,0.8671260380244766,-0.5056954763986001,-0.8606383850524467,-2.1076335773601382,-3.908640187937062,2.127267263986015,0.33752868225524607,-1.700106534090908,-2.3724322552447537,-4.030710500437062,-2.0137333369755233,-3.198754370629369,-5.287095716783216,-3.5743553321678307
4,0.616,right,4,3.9043719951923084,-0.3324068509615379,3.3616286057692313,1.143704927884616,4.345703125000001,-0.2084585336538453,-2.8001051682692295,-4.204852764423076,1.2244591346153857,1.8535907451923086,3.7447415865384617,0.9352463942307706,0.013146033653846905,-1.4216496394230758,0.20658052884615463,0.3662109375000007,-0.2572866586538452,-1.5249399038461526,-2.8282752403846145,-1.230093149038461,-2.4883563701923066,-3.802959735576922
4,0.62,right,4,-0.1794348229895108,-0.3146511691433569,0.8403217875874125,0.8684918597027965,2.8986150568181808,1.7624221481643354,-1.2686776114510485,-2.8199095826048954,-0.613253933566434,1.6760339270104891,2.0046847683566424,2.857298951048951,1.3980892154720272,-1.0620970826048952,-0.6057419143356644,1.2140447443181814,0.4440627731643353,-0.7259342220279722,-2.419894558566434,-0.5287437172202802,-1.9334913133741263,-3.4922353037587412
4,0.624,right,4,1.8913215690559437,0.0959489729020977,2.178656304632867,0.4490138767482519,2.430308948863636,-1.6843995847902105,-0.5162805944055943,-3.8741531905594404,-0.056169416520979475,2.0378059440559437,1.7805192854020973,0.8264928430944056,0.929783107517482,-2.2139969405594404,-0.6834230222902102,0.501598011363636,1.2941160402097902,0.661228420017482,-2.4975756665209796,0.22365329982517482,-0.39984429632867136,-3.374603911713287
4,0.628,right,4,5.6044785292832175,-0.4877690668706292,5.25704763986014,1.671936461975525,6.778231534090909,-0.07085199956293627,-4.029686134178321,-6.362168105332167,0.6784719187062941,0.624009779283217,2.954613745629371,-1.2220689466783208,0.3948931927447557,-6.6063087303321675,0.4906714379370632,-1.4981356534090908,1.2475073754370634,-0.21545836975524396,-3.0812937062937062,1.6907165100524482,-0.2023123361013979,-3.6165250764860133
4,0.632,right,4,4.561332222465036,2.0823658763111883,4.897495083041958,3.5584776551573425,4.660866477272727,-0.8698576813811185,-4.438066815996502,-4.866251912150349,0.8560287368881128,1.973441597465035,2.204436188811189,-2.5093558784965024,-2.015440614073427,-4.670939412150349,0.22877513111888195,0.43723366477272735,0.6926423186188805,-2.3328234265734262,-2.8060806381118883,2.405382703234265,-0.7083492679195811,-3.3413120083041963
4,0.636,right,4,5.560089324737763,0.004951103583917123,4.431408435314686,2.848250382430071,5.024857954545456,-1.3359443291083903,-1.6326690887237745,-4.502260434877622,1.4641608391608403,2.2886049497377634,1.8360057910839171,-2.877786276223774,-0.9678553868006986,-1.914369809877621,0.6415947333916094,1.2895063920454557,-0.7011787041083908,-4.214925699300698,-2.2467766608391595,2.134608555506994,-2.834592165646852,-4.2956799060314665
4,0.64,right,4,4.65454955201049,1.0525363308566438,3.5258686625874125,2.138023109702797,4.9982244318181825,-0.09304660183566403,-1.952271361451048,-4.431237707604895,0.8027616914335668,1.4318933020104898,2.0535128933566433,-2.611451048951048,-1.4827701595279719,-2.2339720826048945,0.517304960664336,0.6281072443181821,-0.33718722683566427,-4.095074847027972,-0.8573945585664333,2.3032875327797204,-2.031147563374126,-3.9805165537587404
4,0.644,right,4,7.790646853146852,5.311680506993004,7.296731588723775,1.4655266608391597,2.9097123579545445,-6.136636800699302,0.5490603146853142,-2.076390406468532,3.059952742569929,0.515256228146852,0.8439070694930055,-6.994884997814686,-8.06346973339161,-1.588109156468532,2.383871011800698,0.15092329545454417,-0.7167149256993018,-5.402336920891609,-0.3580160074300714,2.5585254589160824,-2.2641908872377634,-1.2350442526223782
4,0.648,right,4,2.7080829326923084,-3.432992788461538,1.2864332932692315,-0.05258413461538328,1.6357421875000007,-2.5766225961538454,-3.2639723557692295,-3.936298076923076,-0.2647986778846147,0.7549579326923085,1.6207181490384617,-2.4094801682692286,-4.698768028846153,-0.5183293269230758,1.9888070913461549,2.8320312500000004,1.5737680288461544,-2.1352914663461524,3.006685697115385,4.653695913461539,0.5145733173076934,0.713641826923078
4,0.652,right,4,3.0654160292832167,0.6841059331293705,3.8410320148601396,-2.380797913024475,0.5282315340909092,-5.539601999562937,-0.3187486341783208,-3.090683730332168,1.557378168706294,-0.743177720716783,0.8061762456293704,-3.224022071678321,-1.8512005572552446,-1.1863868553321675,2.492624562937063,0.845614346590909,0.173288625437063,-1.6314739947552448,1.6550344187062935,3.2043883850524475,0.6765939138986012,0.43620929851398615
4,0.656,right,4,1.0279515406468533,4.7013289444930075,2.9266144012237763,-2.220996776660839,-1.4604048295454546,-0.4969883631993002,0.6223025021853155,-0.7824450939685317,-0.08946131993006963,-0.5345484593531465,-0.6941788680069931,0.20726343968531524,0.7988349541083917,0.5359142810314688,1.1875819493006994,0.9077592329545455,-1.9618321131993004,-3.2783134833916083,-0.5777425699300699,1.069267646416084,-0.8237611997377621,-1.0641458151223775
4,0.66,right,4,2.2664103474650346,3.0589283763111887,2.358432583041958,-0.4942567198426574,0.3151633522727277,-0.7722014313811191,-0.9224418159965033,-2.3271894121503505,-1.1459243881118886,-0.9562459025349656,-0.7252513111888118,0.7133003715034965,1.4025281359265727,-1.1064862871503487,-0.11302174388111938,1.1208274147727266,-0.6257170563811183,-1.0144640515734271,-1.3412368881118886,2.2100702032342654,0.024072607080419594,-1.9252963833041963
4,0.664,right,4,3.3606042395104905,4.787887893356645,3.257313975087414,-0.5231097027972014,0.18865411931818252,0.8102737106643373,0.5623770760489527,-2.453698645104894,-2.444308621066432,-1.1804113854895093,-0.8517605441433553,1.3680411385489526,1.4225032779720292,-1.8677611451048932,-1.216093476835663,-0.8611505681818175,-0.8987106643356625,-0.3108951595279704,-1.174777371066432,0.03277972027972188,-0.6883741258741254,-1.31938374125874
4,0.668,right,4,5.992884069055942,0.29126147290209736,2.9110781796328653,0.009560751748250282,4.920543323863634,4.956225415209789,-3.9830774694055946,-6.022590690559441,-2.3999194165209805,-1.4289909309440572,0.9992692854020969,3.951492843094404,5.031345607517482,-4.557746940559441,-1.85529802229021,-0.621448863636364,-0.3172120847902111,1.1495096700174807,-2.253435041520981,-1.1923623251748268,-0.9369536713286724,-4.644135161713288
4,0.672,right,4,6.576602108828672,2.876932637674826,4.178389969405595,0.6421069165209803,4.381214488636364,5.686427829982518,-1.690375054632866,-4.511138275786713,-1.7673732517482506,-0.5034760161713272,1.485331075174826,4.632867132867134,6.20100114729021,-3.827544525786711,-3.273533107517481,-0.8189808238636358,-0.6124002950174823,0.903149584790211,-6.79667012674825,-3.1477067854020966,-3.331751256555943,-7.283073371940559
4,0.676,right,4,6.521115603146853,1.1124617569930073,4.611184713723776,-0.2922858391608397,5.399946732954546,3.6289881993006996,-0.8181271853146843,-5.054906031468532,0.9115152425699304,-0.5589625218531474,2.650547694493007,2.5265993771853155,6.096686516608391,-3.052952906468531,-0.9852696131993004,-2.046342329545454,-0.6190586756993012,-0.031243170891609027,-6.02207850743007,-3.2031932910839167,-3.6313783872377616,-7.143247377622377
4,0.68,right,4,4.026442307692309,1.9381009615384623,2.848933293269232,0.1427283653846168,4.809570312500001,5.089393028846155,-3.508112980769229,-4.033954326923076,-0.8019080528846144,-0.07512019230769121,1.9625150240384626,4.328801081730771,7.215294471153847,-3.6433293269230753,-3.6264272836538454,-1.7578124999999982,-0.3793569711538451,0.8920522836538471,-5.587064302884614,-1.9381009615384603,-2.5127704326923057,-5.389873798076922
4,0.684,right,4,6.9761049497377625,-0.04387702141608385,4.919689685314686,-0.22792149256992983,6.587357954545454,3.7910087958916083,-2.999856588723776,-6.2600729348776225,0.4875983391608395,-1.5199888002622377,3.056708916083916,1.3214324737762242,4.2079258631993,-6.015932309877622,-1.9462958916083914,-3.3979936079545454,-0.7011787041083917,0.47257430069930073,-5.176464160839161,-0.9415633194930069,-1.027951540646853,-1.561304906031468
4,0.688,right,4,7.859450120192307,1.5718900240384612,5.314753605769231,0.8995643028846152,7.32421875,5.016150841346154,-4.89971454326923,-5.816180889423077,-0.7286658653846158,-1.320237379807692,2.1822415865384612,2.2536057692307696,3.479942908653846,-6.695087139423077,-2.576622596153846,-2.8076171874999996,-0.45259915865384637,0.379356971153846,-5.464993990384615,-1.9625150240384617,-1.2676532451923082,-2.289287860576923
4,0.692,right,4,9.142298131555943,3.684816160402097,5.718695367132867,2.182412314248251,7.532848011363636,6.25017072770979,-3.3727259069055937,-4.289192253059441,-0.7153491040209797,0.20675125655594398,1.6096208479020975,2.5598912805944054,1.8819315450174814,-6.095832878059441,-3.14924333479021,-2.0618785511363646,-1.4158448972902105,-1.0721700174825186,-6.672380354020981,-3.609354512674825,-3.3051177338286726,-5.010346099213287
4,0.696,right,4,7.923814466783217,10.32766062062937,6.843961702360139,2.819397399475524,4.312411221590909,2.883249562937063,2.244727928321679,0.10755845716783197,0.556401606206294,0.941392591783217,0.14699655812937035,0.21836074082167892,-2.2174114947552446,-2.0408790428321675,-3.195851999562937,-1.2295809659090913,-3.1714379370629366,-3.853153682255244,-6.523676518793707,-3.607135052447552,-5.890788898601399,-7.596017263986013
4,0.7,right,4,6.372411767919581,0.03602354676573412,3.4859183784965033,1.4633072006118877,7.3508522727272725,6.751768739073427,-4.3359716455419575,-5.691891116695804,-0.9461729676573432,0.26889614291958047,3.4295782342657333,2.5243799169580425,2.4323576813811183,-4.471187991695803,-1.5245984484265735,-1.2673117897727275,-1.5490125109265727,-1.5471345061188804,-3.875860467657344,-0.9104908763111891,-3.096488472465035,-4.89937308784965
4,-0.1,right,6,0.19949532888985982,-2.7884103201486012,0.3741497760052445,-0.3113219788024479,1.20047189138986,2.0136479731206287,-2.377127267263986,-1.0850599595716783,-0.05591332495629365,-1.5733412095716783,0.46241600196678256,1.3507122760052443,7.349059631774475,-0.41836825284090945,0.7910668433129364,-0.8033592384178324,-1.0794259451486017,0.22015338177447463,-0.281273901879371,-0.6362168105332169,-1.2033742624562942,-1.3479806326486021
4,-0.096,right,6,3.029307118662587,4.338276469624126,3.6922428157779716,0.7118491859702794,-0.4130756938374132,-1.162399612106644,8.948778272508742,3.5025643302010483,2.725070339816433,-1.0872794197989513,-0.41870970826049053,-2.3136165592220284,-0.41683170345279785,1.8255060369318177,0.6911911330856637,-2.4169068236451055,-2.8882860303758746,-2.614097328452798,-2.7248996121066438,-2.88453002076049,-4.574734347683568,-5.549418842875874
4,-0.092,right,6,2.168156550480769,3.037672776442308,2.586951622596154,0.4366361177884613,-0.4929762620192308,-1.3399564302884612,7.697002704326923,2.885554387019231,0.9850135216346154,-1.6554612379807692,-0.9380634014423078,-1.3681265024038463,1.3099083533653846,1.79443359375,0.220665564903846,-2.155010516826923,-2.2845928485576925,-1.7174353966346156,-1.8282376802884615,-2.476149338942308,-2.945650540865385,-3.920335036057692
4,-0.088,right,6,0.8875279993444055,1.464075475305945,0.6715574464597911,1.1579606916520981,0.08186393684440561,-0.13035060642482507,1.1917647781905605,1.3607852108828673,-1.4674900295017477,-2.496636664117133,-1.0468169525786715,0.2321043214597902,0.27342042722902105,-0.36510120738636387,-0.3763692362325175,-2.1172796929632867,-0.34256514969405605,1.2011548022290206,0.11379001857517473,-0.24115289007867138,-0.3688572170017484,0.316614537805944
4,-0.084,right,6,2.4011998743444054,2.342981725305945,2.0875730714597904,0.7673356916520979,0.5701451868444056,0.2114462685751751,3.58434290319056,0.6771914608828675,0.827431845498252,-2.5454647891171325,0.2715424224213288,-0.3538331785402096,2.665998552229021,-1.048694957386363,0.01425576376748257,-3.0450140679632867,-1.6120963996940558,-0.21486082277097937,-1.546366231424825,-1.7548247650786712,-2.4196384670017483,-1.880651087194056
4,-0.08,right,6,-1.7491907506555953,-0.5378776496940555,-1.5745363035402096,1.0114763166520973,-0.3575891881555947,3.5805868935751746,0.06871790319055966,0.09125396088286683,-2.004599404501749,-0.10405853911713327,-0.5585357025786717,3.0153074464597895,1.4452954272290208,0.8556019176136359,-1.5970723612325175,0.4217828070367129,-0.7331901496940563,0.07810792722901971,0.2602743935751742,0.10064398492132835,-1.3454197170017486,-0.36697921219405655
4,-0.076,right,6,-2.1309379097465033,-2.4821248087849637,-3.274642837631118,1.0203541575611885,0.3837105277534973,4.224230359484266,-4.268107380900349,-2.1459619482080408,-2.4840028135926575,1.2231786767919581,0.08510776333042007,3.4148102873688826,0.5752670181381123,0.766823508522728,-2.2717882703234262,2.090816897945804,0.49639081621503534,0.9658920181381121,0.2203241094842658,1.33022495083042,0.6165831239073428,1.6438517537150346
4,-0.072,right,6,-2.60812185861014,0.1168631173513997,-3.5565142864947545,-1.2146422913024477,-1.2653484211101398,2.3310307856206296,0.8211149202360143,-1.1094740220716781,-2.5217336374562933,-1.2559583970716783,-0.9291855605332172,2.254032588505245,1.514098694274476,0.33846768465909083,-1.235300344187063,0.7835548240821677,-0.9085275076486017,0.5375361942744753,1.5986089106206292,2.024916001966784,1.1159616750437058,3.1686209298513988
4,-0.068,right,6,-2.372859074519231,-6.044358473557692,-4.053673377403847,-3.7137545072115388,-0.15117938701923073,-1.0958158052884615,-3.777606670673076,-4.389836237980769,-1.8470177283653848,-3.4132737379807687,-0.010329026442308086,-1.1728140024038465,-1.4732947716346154,-0.69580078125,2.417931189903846,0.28639573317307676,0.9380634014423074,2.1888146033653837,7.253793569711538,5.482835036057692,5.306302584134614,10.337477463942307
4,-0.064,right,6,-2.4017120574737763,-3.827117706512238,-4.131354485358392,-3.205498115166084,-1.8890167449737765,-1.027012538243007,-1.5603659036276225,-2.660876720935314,-1.4364175863199307,-1.8307985959353148,-0.8204320093968533,-0.6645576103583919,-1.9904290045891608,0.9355024857954545,2.0961094569493004,0.9411365002185311,0.8603822934877619,0.5974616204108388,6.101893711756993,4.4774195531031475,4.00791835118007,7.427765105987762
4,-0.06,right,6,-3.1940593586101365,-1.2991525076485968,-3.214717411494753,-2.6306579163024444,-1.0700359211101365,-1.9170160893793677,0.47931804523601806,0.11122910292832545,-0.4709523874562903,-0.5235365220716753,-1.3198105605332138,-0.529170536494752,-2.0991825557255206,2.633389559659094,3.2080590308129397,2.1019141990821706,0.6539724923514018,-0.3901981807255221,2.8681401606206327,2.7085097519667864,2.043696050043709,1.8502615548514014
4,-0.056,right,6,-3.817727682473777,0.3721010434877621,-1.7876044853583921,-3.351982490166085,-4.476907369973777,-5.030918788243008,5.5685403463723775,3.3449826540646845,1.2979574136800693,1.0988889040646848,-2.3829320093968542,-2.5200263603583926,-4.773632129589162,5.623002485795453,3.4144688319492995,2.357152125218531,0.6650697934877614,-0.867382129589162,2.488612461756992,2.231325803103146,0.5899496011800691,-0.04293801901223878
4,-0.052,right,6,-4.4569322279283226,1.1000839980332169,-2.4268090308129375,-2.9657964106206296,-4.188377540428322,-3.3263733336975525,3.3180076759178325,4.21944998361014,0.902893493225524,1.0456218586101396,-2.240886554851399,-0.22954340581293786,0.007085199956293521,5.423251065340908,2.091670536494755,2.2550569547639854,0.855943373033216,-0.4811960500437069,0.8728454163024473,0.7132150076486006,0.09722943072552366,-2.586439439466784
4,-0.048,right,6,0.2971515788898605,3.6080740548513996,1.6925091510052455,-2.166790728802447,-2.363981233610139,-4.72463327687937,6.900216482736015,4.579002540428322,2.8737741750437067,-1.4756849595716777,-2.174302748033216,-4.850459598994754,-3.2466434932255237,2.6578036221590913,3.8184105933129375,-1.6334373634178316,-0.24934782014860085,-1.9282841182255241,0.8417729731206298,-0.0014511855332160948,-0.22681176245629367,-2.226886882648601
4,-0.044,right,6,0.874211237980769,3.062086838942309,1.7812875600961544,-2.8104341947115388,-1.249812199519231,-3.3174954927884612,7.428448016826924,4.179499699519231,2.3766150841346154,-2.265812800480769,-1.353102463942308,-4.126915564903847,-1.888333834134615,2.25830078125,2.7353140024038454,-2.228252704326923,-0.7465069110576922,-1.7418494591346159,0.34461388221153844,-0.9380634014423078,-0.6263146033653848,-1.7474834735576927
4,-0.04,right,6,-1.7647269722465038,4.134086128715035,-0.17405690013111869,-0.7618724049388113,-3.8399222847465038,-3.0755743280157346,6.205525431599651,5.739780239291957,1.397833123907342,-0.6567041357080428,-3.9920406741695813,-3.445541275131119,-4.478443919361888,4.8928000710227275,0.8287976671765728,0.40624658544580355,-0.9928669962849662,-3.3553970443618897,2.100206921984265,0.5733890133304199,-0.6285340635926577,0.8870158162150349
4,-0.036,right,6,-0.13342370520105098,4.984139395760487,0.3341994919143332,-0.6930691378933601,-2.501587767701051,-2.8602866859702827,4.711828698645103,4.246083506337409,1.7596051409527949,-0.3925883686625894,-3.239643657124128,-4.255644258085667,-5.190890652316435,5.498712713068179,0.06752280922202551,0.13325297749125672,-2.1447668542395126,-4.165500027316437,2.1690101890297178,0.34922353037587106,-0.8038714215472051,2.1276940832604856
4,-0.032,right,6,-1.2120813756555948,-0.6355338996940549,-1.5745363035402096,2.427491941652097,-0.015792313155594432,2.6040243935751746,-2.909797721809439,0.4818789608828674,-1.4674900295017486,1.5560977108828673,-0.8515044525786716,1.2086668214597898,0.41990480222902105,1.0997425426136362,-1.3041036112325175,1.3006890570367131,-0.8796745246940562,-0.6543139477709801,-0.32566310642482527,0.2959564849213284,0.21708028299825147,0.21895828780594373
4,-0.028,right,6,1.0784015788898615,3.1686209298514005,2.229618526005246,1.2023498961975536,1.3957843913898604,-0.37893015187936935,-2.230642892263984,-0.889747459571677,0.5788523000437076,0.37978379042832255,0.02296287696678397,-1.5301470989947543,-1.1958622432255228,-3.8363370028409074,-1.2108862816870618,-0.9010154884178305,0.2389334298513996,-0.31695599322552465,0.4511479731206305,1.7075331894667847,0.017328862543708235,0.019206867351399867
4,-0.024,right,6,0.3371018629807693,-1.4301006610576912,1.9766000600961549,0.6563626802884617,2.26581280048077,0.19812950721153869,-2.5813176081730758,-3.4376878004807687,0.6676307091346161,1.2498121995192306,1.4301006610576938,-1.1972280649038465,-0.17934945913461564,-3.9428710937499996,-0.34085787259615397,-0.07981520432692227,0.0835712139423087,-0.47231820913461553,0.2957857572115387,1.405686598557693,0.6920447716346158,2.402907151442307
4,-0.02,right,6,-0.13786262565559432,-4.688268274694056,0.23210432145979126,0.3767106916520977,2.474442061844406,-0.960428731424825,-7.30432897180944,-6.1099179141171325,0.48563497049825194,2.0932070858828675,3.1524017974213288,-0.012036303540210009,1.9335766772290213,-4.222523082386363,0.35605263876748255,1.5448296820367133,1.4152473503059444,1.4452954272290208,0.6508993935751748,1.5654877349213288,2.1213771579982517,3.5880989128059437
4,-0.016,right,6,1.1005961811625886,-5.744731342875872,-0.3849056217220264,0.296810123470281,2.150400868662588,0.6198269503933584,-8.751417039991257,-6.92224035729895,-0.6196562226835653,2.941040892701049,3.121329354239511,1.763531878277973,2.000160484047204,-3.76531427556818,-0.8957229294143343,1.9043822388548965,2.165424907124127,2.146644859047203,-0.16142304960664217,0.7531652917395123,2.627414089816435,3.6546827196241267
4,-0.012,right,6,2.8894811243444054,-2.295690149694055,1.2086668214597909,3.7458513166520984,3.158035811844406,2.945821268575175,-8.67151647180944,-4.547417914117133,-0.44209940450174834,3.948675835882867,4.617245547421328,2.966479321459791,0.9081860522290215,-5.589710582386362,-2.6224629862325175,0.7147515570367132,2.0988411003059446,2.3242016772290204,-4.085428731424825,-2.3895903900786712,0.8518459079982517,-1.734166712194056
4,-0.008,right,6,3.2357169197989495,-1.0705481042395097,1.945527616914335,2.724899612106642,2.72302160729895,1.143619564029719,-5.444421301354895,-1.7597758686625884,-0.8771136090472045,1.9023335063374116,2.717387592875873,1.5060744919143343,-0.8940156523164344,-4.266912286931818,-2.764508440777973,-0.15971577250874236,2.5427331457604887,3.158718722683565,-2.420833560970281,-2.3851514696241276,0.31917545345279613,-1.8762121667395117
4,-0.004,right,6,3.757290073208041,1.7947750491695809,2.6624132703234267,3.246472765515734,3.3910791357080416,5.278473967438811,-3.2138637729458037,-0.16398396525349598,-0.9414779556381122,1.6426566597465033,2.848335746284965,4.957335145323427,3.338495001092657,-4.6242453835227275,-4.489029037368881,-1.0053301190996502,1.35532192416958,2.4595887510926566,-7.563322907561188,-6.306937691215035,-2.186595143138112,-6.23745151333042
4,0.0,right,6,3.7239981697989504,-0.6799231042395095,2.677949491914336,4.043258987106642,4.480834107298951,5.196353939029721,-3.8330931763548945,-0.1972758686625872,-0.2423479840472028,2.195302256337412,3.547465717875874,5.900605741914335,4.086453097683566,-3.8274591619318183,-3.643414690777972,-0.6968251475087412,0.49195189576048903,1.5962187226835658,-7.694271060970279,-5.705463969624126,-3.294105796547203,-8.126212166739512
4,0.004,right,6,5.055674306162584,2.8490186571241245,3.7654850032779703,1.3222007484702756,3.810557118662584,3.8424832003933544,4.28569233500874,1.573853392701046,1.2358125273164307,-0.6722403572989534,2.6330481042395064,3.472516253277969,5.418129234047199,-3.130548650568184,-3.5812698044143385,-3.9549927611451077,-0.9595750928758772,0.48648860904720004,-8.218063674606645,-6.717537833260492,-4.599148410183568,-7.917582905375876
4,0.008,right,6,0.3526380845716799,2.833482435533219,1.3085425316870645,2.2343989018793713,0.4258802720716786,0.8484313538024506,0.2174217384178334,3.6579265461101413,0.39019818072552676,0.19112967111014087,0.713215007648602,2.0897925316870634,0.031499262456293795,0.07657137784090982,-1.5948529010052424,-1.236153982736013,-0.8774550644667816,0.4709523874562928,-4.132037396197551,-3.070964679851396,-2.856872131774474,-2.073744126966782
4,0.012,right,6,3.2601309822989513,2.615975333260491,3.3371291794143363,1.430954299606643,3.3333731697989517,-0.687435123470279,2.294836511145106,3.0009663188374134,1.930503578452798,-0.41700243116258673,1.032817280375874,-0.5691208205856642,-1.3090547148164327,-1.6546075994318172,-1.1287662532779714,-3.2603017100087404,-1.0949621667395097,0.15578903518356685,-3.6171226234702787,-2.263081157124125,-3.123207359047202,-3.2678137292395095
4,0.016,right,6,2.5876345334353132,2.529416384396853,1.3462733555506978,2.2233016007430066,2.319079845935314,2.3998340526660833,0.8410900622814682,2.670266744973774,0.72089775458916,0.5706573699737755,0.7021177065122374,1.7368983555506985,1.2899332113199282,-1.301713423295455,-2.4848564521416105,-1.8331887838723793,-1.181521115603148,0.6551675863199269,-5.119697197333918,-3.716827605987764,-2.62382880791084,-4.330935178103148
4,0.02,right,6,2.760752431162586,2.897846782124125,2.837750628277971,0.15032574847027766,3.5175883686625857,2.5241238253933544,8.77787983500874,4.015259642701048,1.9194062773164324,-2.1859122322989526,0.8752356042395084,-0.4825618717220294,3.0255511090472016,-1.568048650568183,-0.163301054414337,-3.027258386145106,-2.668559467875875,-1.613120765952799,-5.288376174606645,-4.178475333260491,-4.647976535183568,-7.478129780375876
4,0.024,right,6,2.4700031413898573,5.878581867351397,2.205204463505243,3.570513958697552,-0.3376140461101399,1.4032964106206292,-1.6691194547639867,4.456932227928318,0.6520944875437055,1.3807603529283208,-0.7827011855332171,0.3497357135052436,0.09808306927447537,1.1685458096590902,-1.9188940941870638,0.8323829490821649,-2.080402507648602,-2.392151305725528,-3.7236567143793717,-2.2719589980332175,-3.180913324956295,-6.108722820148603
4,0.028,right,6,0.42366081184440396,0.7560676628059443,-0.13410661604021076,2.1101091291520966,0.30159049934440385,1.8471884560751741,-1.762336784309441,3.338324273382866,-0.124716592001749,1.873480523382867,-0.19232476507867136,-1.0618409910402105,-5.122087385270979,1.7100941051136362,0.23398232626748114,2.057524994536712,-0.8064323371940575,-2.4365405102709805,-0.39890529392482693,0.9063080474213278,-0.7350681545017489,-2.7839713996940567
4,0.032,right,6,0.40368566979894915,-3.02367310423951,-0.20290988308566527,-0.15595976289335825,2.08825598229895,0.06940081402971976,-2.1241088013548945,0.8769428813374109,1.027183265952796,0.4374897563374123,1.0572313428758728,-3.034941133085665,-3.7748750273164338,-0.9954279119318192,2.313616559222027,1.4516123524912572,1.32203002076049,-1.5287812773164358,1.924869564029719,2.8394579053758715,-0.3155901715472047,-0.6555090417395127
4,0.036,right,6,-0.07571773929195949,0.7449703616695795,-0.340516417176576,2.4408087030157315,-1.516147426791962,-2.8025807200611914,-2.749996585445806,3.229570722246502,1.426686106861887,4.157305097246501,-0.3987345662150383,-3.953797667176576,-11.236700311407343,2.773215553977272,2.5666350251311174,3.7554120684003487,1.1355953616695778,-3.863653436407345,3.3009349049388077,2.701851371284964,-0.5508529556381149,-0.744287450830422
4,0.04,right,6,-0.9723796711101412,0.19010530485139757,2.327274776005243,1.4953186461975518,1.1516437663898602,-5.554711401879373,-0.7657991422639863,2.8211900404283208,4.387446050043704,3.7977525404283203,1.5854628769667813,-4.703975223994757,-9.057190368225525,3.487881747159089,3.9648949683129375,3.688828261582167,0.2389334298513962,-5.102112243225526,1.3788823481206274,2.000501939466781,-2.5705617624562946,-3.7893868826486043
4,0.044,right,6,-3.744485494973773,-4.388641144012234,-2.4956122978583886,2.38532219733392,-0.009133932473772843,0.7063858992569939,-3.391420591127619,0.7326779665646882,1.0782308511800736,5.908459216564686,2.3778101781031498,1.8500908271416103,-1.6242180670891588,2.6689009232954555,1.143961019449304,4.432347437718534,1.5683901059877632,-1.5265618170891593,-0.9537703507430055,0.7908961156031499,-2.559464461319928,-4.950164581512234
4,0.048,right,6,-1.4761971427010498,0.4187097082604897,-0.17849582058566457,3.6282199246066433,0.7454825447989505,-0.19915387347028032,-1.513757238854895,2.3173725688374125,1.0515973284527966,5.0517475688374125,2.8394579053758733,1.0422073044143345,-6.191867214816433,0.9332830255681819,0.8731868717220282,2.061963914991258,1.5905847082604891,-0.5766328398164355,-2.4940757484702805,-0.9935499071241267,-2.683754234047203,-6.246329354239512
4,0.052,right,6,0.749921465253498,-3.0192341837849623,0.7780915373688831,0.14144790756119094,1.7997261527534976,-0.46326964051573283,-1.045451130900347,-0.7299463232080402,0.8851378114073444,0.6860693017919601,3.5030765133304227,1.2175446623688837,0.33112639313811426,-2.8464577414772707,0.4137586046765761,-1.815433102054194,2.351859566215037,2.4307357681381134,-0.8050665155157318,-0.2322750491695778,-1.336541876092656,-2.9948201212849628
4,0.056,right,6,0.8542360959353164,-0.6688258031031449,0.8824061680507006,-0.047206211756992425,0.9763064084353164,0.7152637401660857,2.6721447497814697,0.8880401824737774,0.6964836920891626,-0.3326629425262233,2.826141144012237,2.933187418050699,3.560441023819932,-1.374955610795453,-0.4096611396416068,-2.199399721372376,0.4053929468968535,2.2909097738199296,-3.972236259833915,-3.3994447934877616,-2.3552741204108374,-4.941286740603145
4,0.06,right,6,1.5533660675262226,-3.094695831512237,0.8491142646416081,1.6773143848339147,1.9684051300262226,0.7796280867569927,0.24627472137237746,-0.170642345935314,1.2979574136800698,1.0988889040646854,4.306521115603146,3.290520514641609,3.868945995410838,-2.335981889204546,0.2894688319492997,-1.8420666247814694,0.7627260434877621,1.8181647454108365,-4.3961531632430075,-2.651486696896854,-2.486222273819931,-6.830047394012238
4,0.064,right,6,2.8162389368444045,-0.22049483719405488,3.08854963395979,2.451906004152098,1.2781529993444063,-0.05710841892482455,0.23961634069056031,0.1644961483828668,3.342080282998252,2.3617617733828657,3.6162689849213274,0.9889402589597908,-0.04396238527097955,-2.098499644886363,-0.2542989237325176,-1.1651312554632873,0.4630989128059433,0.6396313647290214,-4.891092793924825,-3.3905669525786717,-2.6393650295017475,-6.690221399694055
4,0.068,right,6,2.7163632266171325,0.07025445257867124,2.402736423732518,1.912577168924823,2.6919491641171334,0.18481274584790103,-1.1297906195367136,-0.6189733118444065,2.509782697770979,1.0411829381555942,3.3699088996940545,0.7425801737325158,3.127646279501749,-3.8585316051136367,0.42707536604020874,-1.9486007156905605,0.11908257757867073,1.0768650295017475,-4.160890379152099,-2.855677037805944,-1.4697094897290226,-6.35064398492133
4,0.072,right,6,-0.5906325120192285,1.255446213942311,1.6348031850961553,3.6837064302884652,-0.6150465745192275,0.051645132211541274,-1.4094426081730742,2.6169996995192335,1.0582557091346187,2.3240309495192344,0.014085036057695578,-0.4648061899038425,-2.3277869591346128,-1.8920898437499973,-0.04788912259615068,0.5549504206730806,0.42536808894231004,-0.7652869591346121,-0.4854642427884599,-1.2310321514423048,-1.1634239783653832,-2.6263897235576894
4,0.076,right,6,0.5213170618444067,-1.7829948371940523,0.25651838395979365,5.235109129152099,0.8386998743444074,3.4585165810751777,-8.940071159309438,-0.32378510161713026,0.900674032998255,5.34027739838287,1.0772064849213294,2.063159008959793,0.5908032397290234,-2.391468394886361,-0.5960957987325156,1.666899994536716,0.7560676628059466,-0.4345873852709755,-1.7172646689248223,-1.7792388275786697,-1.4186619045017466,-3.3210807746940554
4,0.08,right,6,0.30159049934440046,0.9269661003059424,3.064135571459786,2.6228044416520926,-0.30876106315559837,-2.669413106424828,-3.4469070968094444,1.116644585882862,4.245400595498249,4.583441460882861,1.6387299224213252,-3.4788331785402136,-5.048845197770983,-1.097523082386368,2.7486307637674785,2.3260796820367076,-0.44022139969406054,-3.5840014477709845,-0.22800685642482882,0.002987734921323866,-1.2477634670017517,-2.027135462194059
4,0.084,right,6,-2.616999699519231,-2.4799053485576907,-1.0751577524038454,3.7569486177884626,-1.9578200120192304,-1.2911283052884617,-6.707294170673075,-0.7765549879807686,2.791654146634616,7.670710637019231,2.577561598557693,-1.6122671274038465,-5.916654146634615,-0.20751953125000003,2.1249624399038454,4.436786358173078,2.1587665264423075,-1.8639197716346165,0.6131685697115377,0.8441631610576921,0.7652869591346161,-1.234788161057692
4,0.088,right,6,0.410344050480768,-2.528733473557692,0.8291391225961524,4.294057992788461,1.1183518629807678,-0.21690955528846304,-5.877216045673077,-1.5578049879807698,3.3287635216346145,7.817195012019232,4.14006159855769,-1.8564077524038467,-4.793607271634616,-2.160644531250001,2.7108999399038454,3.7043644831730744,2.4029071514423075,-2.6939978966346163,-1.1934720552884632,-2.2808368389423093,-1.3343224158653864,-4.262131911057693
4,0.092,right,6,0.40590513002622547,0.15237448098776513,1.0200127021416105,6.291572197333917,0.3814910675262248,-0.5631453507430052,-6.32110809112762,-0.195056408435313,2.0059652261800713,8.594006091564685,2.7684351781031475,-1.616706047858389,-9.19257744208916,-1.7744584517045432,1.5834141444493028,4.530003687718534,2.2519838559877643,-3.7726555670891595,-1.1979109757430058,-1.3087132593968511,-1.582901961319929,-2.4599302065122357
4,0.096,right,6,1.7975066925262229,-0.018523956512236386,2.6069267646416083,5.681220634833916,0.5523895050262246,-1.4664656632430064,-2.2927877786276216,0.952404529064686,2.8604574136800704,8.130138904064685,2.8905054906031458,-1.7387763603583917,-9.55878837958916,-1.1641068892045452,1.461343831949301,3.431370875218531,1.9346010434877619,-3.943554004589161,-2.4918562882430075,-3.4327366968968525,-2.7303628988199296,-3.460906769012238
4,0.1,right,6,1.9905997322989497,-1.0949621667395104,2.6047073044143354,4.214157424606642,2.796263794798951,-1.22454449847028,-0.8301634888548949,0.1689350688374127,3.0047223284527966,5.930653818837412,3.962504780375874,-0.6179489455856647,-4.385226589816433,-2.289373224431819,1.068499371722028,1.4271982899912574,1.492928458260489,-3.311007839816435,-3.7147788734702805,-4.265034282124126,-2.6349261090472034,-4.293204354239512
4,0.104,right,6,2.23474035729895,0.9069909582604893,2.897676054414335,3.2375949246066416,0.3548575447989503,-1.2245444984702805,2.5389771361451046,2.268544443837412,4.127769203452797,4.6611225688374125,4.548442280375872,-0.5691208205856649,-2.2367890898164338,-1.166326349431819,0.3360774967220273,0.2553232899912577,1.1023034582604887,-2.5297578398164347,-5.081966373470281,-5.485737407124127,-4.392738609047203,-6.783438729239512
4,0.108,right,6,-1.2364954381555946,3.3439582878059446,0.7447996339597907,2.2077653791520975,-2.530440750655594,-2.4008584189248254,4.63414759069056,5.3402773983828675,2.804970907998252,5.144964898382866,1.711972109921329,0.20769025895979035,-3.3642748852709783,1.5147816051136358,0.13632607626748175,0.7391656195367131,-0.02518233719405543,-1.8506030102709805,-3.3285927939248254,-4.122988827578672,-3.6159275295017483,-6.055455774694057
4,0.112,right,6,-5.382447142701049,-2.8039465417395086,-3.4011520705856637,0.405563674606643,-3.0142830802010487,-0.5897788734702792,-1.7578978638548943,2.854481943837413,1.0027692034527977,4.661122568837413,2.1558641553758737,2.7511916794143363,1.3764921601835667,-0.23859197443181784,0.8731868717220282,1.6713389149912585,3.299569083260491,2.255398410183566,-1.5663413734702794,-1.2865186571241258,-0.19351985904720245,-3.0725012292395104
4,0.116,right,6,-2.5060266881555937,1.9279426628059457,0.5494871339597919,-1.7961408708479019,-3.2628626256555933,-5.818827168924824,8.14977259069056,5.8773867733828675,4.758095907998252,3.3383242733828684,1.6143158599213296,-2.575512866040208,-4.145524885270977,1.5636097301136371,3.3589823262674843,1.3251031195367147,0.756067662805945,-1.4599780102709778,-1.6196084189248239,-3.24408257757867,-2.444052529501747,-4.346471399694055
4,0.12,right,6,-7.182429387019233,-4.0179912860576925,-3.052696814903847,-2.273324819711541,-5.400202824519233,-5.270620492788463,1.4225886418269222,4.814265324519228,3.694974459134613,5.156062199519229,1.1859600360576903,-0.17183743990384764,-3.011380709134617,3.8696289062499982,4.200157752403844,5.047137920673076,2.9156024639423053,-0.08169320913461792,0.9793795072115363,-0.05915715144231012,-0.23568960336538713,-2.5287334735576934
4,0.124,right,6,-7.286744017701048,-5.245352791739509,-3.4499801955856633,-2.5729519503933562,-5.211548705201049,-6.35149762347028,-0.14656973885489397,3.733388193837413,4.3230817034527975,6.1747944438374125,1.7652391553758746,-1.6921676955856642,-3.4574922148164333,3.521173650568181,4.9747493717220275,6.45649516499126,3.4948815832604896,-0.5278047148164324,1.7051430015297215,0.5201219678758743,0.19710514095279813,-0.924063729239512
4,0.128,right,6,-6.487738335882867,-5.422909609921326,-4.21347451376748,-1.6762900185751748,-4.168402398382867,-5.406007566652097,-2.8631890570367124,2.774581375655596,4.14552488527098,5.850753250655594,1.5388542121940563,-2.113865138767481,-5.68583028299825,2.7576793323863646,5.676098803540212,6.425422721809441,3.610293515078671,-0.9006740329982516,2.699461183347904,1.6120963996940565,1.3867358227709796,0.46087945257867186
4,0.132,right,6,-5.136087057473776,-2.0693052065122366,-4.08252636035839,-0.275810615166082,-2.767922994973774,-1.1734969132430058,-3.8064596536276207,2.514904529064685,1.7862386636800702,3.979748279064685,0.693239865603149,-1.7387763603583908,-4.090038379589158,0.49604936079545403,4.4398594569493,4.456761500218532,3.594757293487764,-0.7697258795891614,2.635096836756992,1.2059351781031482,0.3946371011800716,-0.28707864401223604
4,0.136,right,6,-4.035234784746507,-4.288765433784967,-2.737533462631121,-2.251130217438813,0.09074177775349443,-1.4886602655157368,-0.9966230059003506,0.734897426791956,2.9359190614073403,2.7856786767919557,2.4288577633304156,-2.1027678376311196,-1.2802017318618912,0.4738547585227246,5.833680479676571,3.604488772945802,2.547172066215032,-1.6708267318618923,1.4410272344842632,0.500146825830416,-0.4576356260926613,-2.0670857462849686
4,0.14,right,6,-2.3173725688374103,7.145893657124131,0.054547503277974314,1.1757163734702816,-3.66014600633741,-5.1418917996066416,2.186082960008744,7.384400267701051,4.214328152316435,5.577759642701049,-1.9079675207604883,-5.121233746722023,-9.034995765952795,5.560857599431819,4.914823945585667,5.322350988854899,-0.6666063428758704,-7.277183265952796,0.9127957003933598,-1.1023034582604874,-3.8667265351835622,-4.353129780375871
4,0.144,right,6,-0.5373654665646863,-4.257692990603145,-2.0716953944493004,-0.12044839925699283,-0.6594357790646864,-0.6275096973339155,-0.23312868771853035,0.6194854949737765,3.1623040045891604,4.379251119973774,1.9716489565122364,-2.2181797694492995,-2.66514491368007,3.3369584517045454,4.74170604785839,4.172670591127622,0.9180882593968529,-4.227644913680071,0.7885059276660851,-0.29885885598776274,-3.1121100579108387,-3.0614039281031475
4,0.148,right,6,1.6066331129807683,-1.3324444110576918,0.16995943509615388,-0.1248873197115404,-0.6150465745192308,-2.8780423677884612,-0.8235051081730769,0.71270282451923,3.060208834134615,3.0076246995192317,2.2113506610576925,-2.955040564903846,-3.0113807091346154,2.5512695312499996,4.981407752403847,2.703387920673076,0.5230243389423077,-4.183255709134617,1.3211763822115377,-0.5474384014423088,-3.604830228365385,-2.772874098557694
4,0.152,right,6,1.5578049879807703,-0.3558819110576901,0.3652719350961561,0.1680814302884629,-1.0056715745192304,-3.268667367788461,0.05540114182692454,2.5193434495192326,3.011380709134617,1.0544996995192317,0.7465069110576928,-3.4433218149038445,-5.403958834134614,1.9653320312500013,5.079064002403848,0.7990910456730775,-0.06291316105769042,-3.7438025841346145,2.737192007211539,0.2826397235576929,-3.3118614783653837,0.2544696514423083
4,0.156,right,6,3.419932118662586,-0.6910204053758735,1.104352190777972,1.200130435970279,0.41700243116258684,-0.3323214871066443,-1.646924852491259,1.6470955802010483,2.8715547148164333,1.891236205201049,2.7551184167395113,-0.2140071842220285,0.6573870465472033,-0.908868963068182,2.546659883085664,0.12215567635489538,0.5296827196241248,-1.930503578452798,-1.6506808621066442,-2.6892175207604905,-4.818874972683567,-4.279887592875874
4,0.16,right,6,1.9684051300262244,2.300811980987763,1.8012627021416092,1.7505565723339167,-0.5462433074737755,-0.8072859757430062,2.0285012838723784,4.785412341564685,4.105574601180071,2.832287341564686,1.2547633031031464,-0.6401435478583916,-1.7707024420891604,2.0829634232954546,3.292398519449301,0.4284411877185313,-1.8007505190122377,-5.139843067089161,-2.027989100743007,-3.2618382593968525,-6.807511336319929,-5.829070831512237
4,0.164,right,6,0.4014662095716779,1.661607435533216,0.9179175316870618,1.941430151879368,-0.40419785292832316,0.8972594788024468,-0.5638282615821678,4.878629671110139,2.8804325557255237,4.439176546110139,1.1038400076486015,1.015573781687061,-1.384516362543706,2.2250088778409087,-0.13000915100524624,1.4982210172639856,-1.023939439466784,-3.6794382375437076,-3.4484436461975534,-3.0221365548514,-5.005309631774476,-5.198744126966783
4,0.168,right,6,-1.0522802392919537,5.188329736669586,0.6360460828234317,0.8783087030157375,-2.834506801791954,0.8595286549388153,1.0585971645542016,6.745195722246508,2.549732981861892,2.8877738472465078,-0.9846720662150313,0.2454210828234321,-2.5452940614073376,2.675559303977279,-0.5583649748688773,1.2651776934003554,-2.2335452633304134,-4.547247186407337,-2.4607838450611847,-0.8626017537150298,-4.017649830638107,-2.8927249508304156
4,0.172,right,6,0.19283694820803973,6.335790674169579,1.8323351453234253,1.2933477655157342,-3.2495458642919592,-0.7273854075611895,1.034183102054194,7.0625785347465015,2.1835220443618866,1.642656659746501,-2.4251017537150372,-3.0993054796765755,-7.647833123907344,1.8698952414772714,0.6867522126311179,0.6548261309003479,-2.0626468258304205,-4.815801873907345,-0.23910415756119013,1.114937308784964,-2.235423268138114,0.5984859866695792
4,0.176,right,6,1.6044136527534987,6.2336955037150386,2.6579743498688844,1.1424244700611925,-2.9121879097465,1.3677850469842672,5.570759806599653,7.302280239291961,2.4720518739073456,1.3452489892919621,-2.331884424169577,-2.713119400131115,-4.576100169361884,1.3283469460227304,-0.5383898328234241,-0.6679721645541916,-3.336616996284962,-5.308522044361887,-2.1478399530157315,-1.4285641116695782,-3.4117371885926544,-1.6520466837849617
4,0.18,right,6,1.824140215253495,2.9377970662150346,1.6569977873688804,2.6805104075611865,-2.985430097246504,0.46446473448426495,-0.4595136309003504,4.201694301791957,2.398809686407341,1.9556005517919568,-2.3562984866695817,-3.5187834626311196,-3.6727798568618892,2.1340110085227266,0.6090711046765723,1.0165981479458033,-3.0680623087849663,-5.918873606861889,0.5132928594842645,0.5001468258304186,-1.9224793760926582,1.0090861287150341
4,0.184,right,6,3.7461927720716752,3.3461777480332153,4.018503469187061,1.5263910893793662,-0.9168931654283243,1.4099547913024446,2.5367576759178285,2.5592937336101373,4.1743778682255215,1.6315593586101365,-0.6783865548514022,-4.575246530812939,-2.33666480004371,0.7357510653409067,1.3104205364947528,-1.7976774202360173,-4.222181626966786,-6.877680425043709,-0.8849670836975562,-0.3121756173514021,-4.1996455692744785,-0.1938613144667859
4,0.188,right,6,4.37430001638986,7.196941242351399,4.353641963505245,5.279498333697552,-0.5817546711101392,3.9423589106206305,2.4324430452360146,4.945213477928322,3.4352976125437062,3.9198228529283217,-0.7827011855332162,-1.2615924114947552,-2.099182555725524,0.9732333096590915,-0.6981909691870626,-1.4137108009178316,-5.058918132648601,-6.689026305725525,-4.700219214379371,-4.664537123033217,-7.819585199956294,-5.083332195148602
